Data from WindowProjectSample_Transmission__56__00056__010481502376259211.txt Node

Date: Mon May 05 18:19:02 EDT 2025
User: jessi
Spectrometer: SR400872
Trigger mode: 0
Integration Time (sec): 5.000010E-1
Scans to average: 20
Electric dark correction enabled: true
Nonlinearity correction enabled: true
Boxcar width: 0
XAxis mode: Wavelengths
Number of Pixels in Spectrum: 3648
>>>>>Begin Spectral Data<<<<<
184.909	20666.69108
185.132	-4930.04154
185.355	-3058.90252
185.578	-17398.87069
185.801	1392.74903
186.024	9852.96066
186.247	-1860.26704
186.47	1277.1763
186.693	598.77208
186.916	178.79343
187.139	-3658.21968
187.362	3413.1535
187.585	3957.72724
187.808	3645.24987
188.031	-48.44456
188.254	-50532.37043
188.476	-718.57154
188.699	6335.84744
188.922	483.00512
189.145	-14819.45829
189.368	-675.39389
189.591	-1451.5895
189.813	3041.2727
190.036	-47753.28211
190.259	-899.14284
190.482	-4594.50259
190.705	6926.43531
190.927	-2403.8786
191.15	12621.00436
191.373	3309.82646
191.595	-8654.20785
191.818	-3995.89757
192.041	-5241.16897
192.263	-3336.84592
192.486	-829.90053
192.709	-3797.11495
192.931	7648.84389
193.154	-27680.64126
193.377	-2710.01822
193.599	-2615.44843
193.822	-9165.2569
194.044	-1840.76165
194.267	1060.50623
194.489	323.5759
194.712	-43146.95316
194.934	-31951.32081
195.157	1162.65251
195.379	1452.19331
195.602	-6804.98834
195.824	-1354.79413
196.047	-8128.55419
196.269	2628.23411
196.492	-6329.07043
196.714	28793.45776
196.936	-8691.57112
197.159	-1176.69447
197.381	1131.34262
197.604	358.42919
197.826	12230.66058
198.048	-10821.36536
198.271	-2618.34776
198.493	7240.0762
198.715	2227.72765
198.938	-550.80665
199.16	7056.53643
199.382	-99781.30244
199.604	2794.81884
199.827	-1082.55198
200.049	-2725.82174
200.271	13044.28115
200.493	1199.6681
200.715	-36919.02536
200.938	-5752.446
201.16	-4206.67119
201.382	20339.96635
201.604	2194.26494
201.826	2245.12162
202.048	-1799.78827
202.27	-1835.76411
202.492	-36561.16925
202.715	2795.55421
202.937	-4349.03708
203.159	-6288.93792
203.381	1487.72089
203.603	6570.1476
203.825	6454.48494
204.047	2086.60553
204.269	-2740.75091
204.491	2115.74295
204.713	5853.21422
204.935	-463466.97078
205.156	1106.86688
205.378	-2897.24758
205.6	1684.9896
205.822	152713.66553
206.044	-1026.66972
206.266	1482.41122
206.488	4713.06739
206.71	-5215.64457
206.932	1059.66376
207.153	11395.3362
207.375	-6636.68362
207.597	-37509.52001
207.819	-2650.21371
208.041	2340.51497
208.262	502.75803
208.484	618.38144
208.706	-792.84693
208.927	-762.94736
209.149	541.74537
209.371	-2917.11059
209.593	-269.63447
209.814	-780.77006
210.036	565.81559
210.258	-560.88747
210.479	1669.28149
210.701	1515.76734
210.922	3183.91078
211.144	-3805.47376
211.366	2005.84621
211.587	7752.42851
211.809	-7377.51021
212.03	2227.49821
212.252	464.63898
212.473	1994.50008
212.695	-6374.32859
212.916	2686.82015
213.138	-771.96108
213.359	3620.10328
213.581	5036.62578
213.802	-822.44612
214.024	1091.64064
214.245	1840.34847
214.466	3728.06867
214.688	-3025.41634
214.909	-1072.49942
215.131	-1605.16991
215.352	-2894.37933
215.573	13934.87941
215.795	4867.07821
216.016	5343.38451
216.237	796.26092
216.459	3358.07101
216.68	1727.62394
216.901	4613.14788
217.122	-2862.26409
217.344	-11587.10458
217.565	3223.42162
217.786	8369.15458
218.007	14885.87874
218.228	-683.58872
218.45	5673.35713
218.671	804.02792
218.892	35058.74587
219.113	1429.43895
219.334	-484.96561
219.555	9713.55498
219.776	3162.72638
219.997	21145.89358
220.219	2858.59893
220.44	-10892.16881
220.661	458.04863
220.882	1399.34307
221.103	-1103.58972
221.324	2032.25606
221.545	2207.3259
221.766	-8273.63368
221.987	914.49904
222.208	1613.1666
222.429	4097.43912
222.65	239.4177
222.87	18831.47929
223.091	717.56052
223.312	549.10288
223.533	1262.74273
223.754	1500.60498
223.975	1300.59041
224.196	1934.99
224.417	1343.82981
224.637	620.99386
224.858	18.31713
225.079	1058.07431
225.3	625.32148
225.521	3739.65918
225.741	429.32141
225.962	475.29942
226.183	133.66904
226.404	635.20534
226.624	390.02432
226.845	589.50356
227.066	395.5275
227.286	239.84236
227.507	112.54689
227.728	116.35549
227.948	235.14399
228.169	73.12912
228.389	81.19963
228.61	46.17832
228.831	60.69951
229.051	2.41145
229.272	36.168
229.492	55.64656
229.713	13.24911
229.933	36.92763
230.154	30.62364
230.374	52.54395
230.595	35.88181
230.815	21.02098
231.036	38.59162
231.256	-7.32696
231.477	64.94373
231.697	38.0942
231.917	37.23463
232.138	54.69265
232.358	101.79747
232.579	99.16486
232.799	16.79887
233.019	99.00397
233.24	109.53921
233.46	37.11772
233.68	60.50634
233.901	41.96837
234.121	24.4771
234.341	15.65004
234.561	1.84441
234.782	18.59888
235.002	66.16001
235.222	-5.41802
235.442	62.36633
235.662	33.82573
235.883	58.49472
236.103	49.89164
236.323	34.94951
236.543	26.0416
236.763	34.78653
236.983	39.70017
237.203	41.83533
237.423	59.60403
237.643	83.69124
237.864	72.88485
238.084	19.08338
238.304	26.5531
238.524	42.80591
238.744	37.48501
238.964	71.84627
239.184	60.1463
239.404	61.07583
239.624	33.60629
239.843	57.59589
240.063	34.41688
240.283	22.20894
240.503	23.83418
240.723	24.37873
240.943	13.15552
241.163	18.91316
241.383	13.85441
241.603	7.35545
241.822	9.38027
242.042	6.27374
242.262	7.82743
242.482	9.31909
242.702	10.27497
242.921	2.31546
243.141	6.63028
243.361	6.31639
243.581	9.28553
243.8	7.09508
244.02	5.05834
244.24	9.13627
244.459	9.04169
244.679	17.90941
244.899	11.30548
245.118	12.495
245.338	11.34403
245.558	13.24032
245.777	8.4266
245.997	9.89701
246.216	10.03209
246.436	5.93721
246.655	4.33764
246.875	3.07873
247.094	6.09844
247.314	1.94472
247.533	3.52721
247.753	4.12921
247.972	3.36094
248.192	1.12798
248.411	1.67814
248.631	3.24461
248.85	4.46161
249.07	3.71465
249.289	5.74915
249.508	4.72132
249.728	7.29157
249.947	6.79316
250.166	8.53067
250.386	4.4625
250.605	6.91799
250.824	10.46949
251.044	6.9592
251.263	28.34112
251.482	14.683
251.701	10.95372
251.921	0.04294
252.14	2.77441
252.359	4.26953
252.578	10.09883
252.798	3.17082
253.017	8.78812
253.236	3.80935
253.455	5.68898
253.674	10.13956
253.893	4.79734
254.112	7.38812
254.331	10.66455
254.551	8.94936
254.77	2.90734
254.989	12.73324
255.208	8.93039
255.427	14.27224
255.646	10.60256
255.865	20.52785
256.084	7.90772
256.303	10.35995
256.522	13.18534
256.741	3.15211
256.96	2.86687
257.179	7.55174
257.397	10.36098
257.616	5.65598
257.835	5.72026
258.054	15.07534
258.273	10.43987
258.492	10.89404
258.711	6.30086
258.93	2.91949
259.148	4.60661
259.367	4.47674
259.586	5.34532
259.805	2.34595
260.023	5.11974
260.242	3.96301
260.461	2.76538
260.68	1.18584
260.898	4.27163
261.117	1.33265
261.336	0.93649
261.554	3.32598
261.773	3.33588
261.992	0.76244
262.21	3.34816
262.429	3.6035
262.648	7.3722
262.866	7.8164
263.085	5.31808
263.303	4.75728
263.522	8.84546
263.74	8.89285
263.959	14.79942
264.178	6.91996
264.396	5.94674
264.615	4.36639
264.833	10.44927
265.051	8.54235
265.27	10.21681
265.488	10.49686
265.707	5.99121
265.925	10.57999
266.144	4.45386
266.362	5.29828
266.58	5.34667
266.799	4.85043
267.017	6.11008
267.235	5.28733
267.454	3.14645
267.672	1.74966
267.89	3.77473
268.109	4.04441
268.327	4.29778
268.545	0.84345
268.763	3.67881
268.982	1.63645
269.2	4.25451
269.418	3.16143
269.636	1.63337
269.854	4.64039
270.073	3.08988
270.291	1.72459
270.509	1.47298
270.727	4.30336
270.945	6.98183
271.163	7.0609
271.381	1.16917
271.599	2.93814
271.817	5.14102
272.036	1.85101
272.254	3.00563
272.472	2.28709
272.69	2.45507
272.908	2.35351
273.126	4.38749
273.344	5.18459
273.562	1.69436
273.779	2.50316
273.997	3.71996
274.215	3.91413
274.433	2.79272
274.651	4.28311
274.869	4.4706
275.087	2.44279
275.305	3.99735
275.523	2.45963
275.74	2.72066
275.958	5.22009
276.176	8.11575
276.394	2.51516
276.612	3.04093
276.829	3.27414
277.047	2.43829
277.265	2.7859
277.483	3.4617
277.7	4.27789
277.918	3.36904
278.136	5.93364
278.353	2.83959
278.571	1.58493
278.789	4.21511
279.006	0.72007
279.224	2.9225
279.442	5.14318
279.659	3.49316
279.877	2.59478
280.094	5.60611
280.312	1.03913
280.529	3.28442
280.747	0.88098
280.964	2.43682
281.182	6.01333
281.399	2.59554
281.617	3.7854
281.834	2.5472
282.052	1.80928
282.269	3.06401
282.487	2.6432
282.704	1.88332
282.921	2.21719
283.139	3.28987
283.356	3.86485
283.574	3.79921
283.791	1.82149
284.008	5.50732
284.226	2.9247
284.443	3.12763
284.66	4.08824
284.877	3.2286
285.095	2.03447
285.312	1.52431
285.529	0.86578
285.746	0.70677
285.964	1.97457
286.181	1.34544
286.398	1.81087
286.615	2.6581
286.832	2.52812
287.05	0.5319
287.267	1.71469
287.484	1.81748
287.701	2.49613
287.918	2.46426
288.135	2.56652
288.352	1.0905
288.569	1.39306
288.786	2.43692
289.003	2.02802
289.22	2.97057
289.437	1.52457
289.654	2.83257
289.871	3.00429
290.088	2.80412
290.305	2.10767
290.522	1.6471
290.739	1.98057
290.956	3.05274
291.173	3.4241
291.39	3.31064
291.607	2.21268
291.824	1.6347
292.04	1.27809
292.257	2.92248
292.474	3.13239
292.691	1.80962
292.908	0.90938
293.125	1.5665
293.341	1.05265
293.558	4.76461
293.775	1.93097
293.992	1.83857
294.208	0.77416
294.425	1.15909
294.642	1.8072
294.858	3.02649
295.075	0.62219
295.292	1.84089
295.508	2.2021
295.725	3.99554
295.942	1.59922
296.158	1.14352
296.375	1.96001
296.591	1.48861
296.808	1.70096
297.024	1.87391
297.241	2.23464
297.458	2.26665
297.674	0.11788
297.891	1.74463
298.107	1.32923
298.323	1.09156
298.54	2.8987
298.756	1.19164
298.973	0.49253
299.189	2.97616
299.406	1.03241
299.622	2.66652
299.838	2.58656
300.055	2.51838
300.271	0.53977
300.487	1.00864
300.704	1.23152
300.92	0.5746
301.136	4.1076
301.353	2.51319
301.569	1.82838
301.785	2.13013
302.001	2.50942
302.218	2.13055
302.434	2.18276
302.65	0.63083
302.866	1.47752
303.083	3.78854
303.299	3.59532
303.515	1.91306
303.731	2.01123
303.947	0.55975
304.163	1.13416
304.379	1.93715
304.595	2.29528
304.812	1.10916
305.028	1.07529
305.244	1.62487
305.46	2.54321
305.676	2.49554
305.892	3.02889
306.108	2.18546
306.324	1.34672
306.54	3.51156
306.756	2.46222
306.972	2.26742
307.187	1.64683
307.403	3.35559
307.619	1.51817
307.835	3.06394
308.051	3.28244
308.267	0.93911
308.483	2.81439
308.699	2.38491
308.914	1.98878
309.13	1.76344
309.346	0.56598
309.562	0.92014
309.778	0.62203
309.993	2.41484
310.209	1.81417
310.425	0.83364
310.641	1.69425
310.856	0.89095
311.072	0.85262
311.288	1.77879
311.503	1.80972
311.719	0.26997
311.935	0.19875
312.15	2.07851
312.366	1.711
312.581	2.0841
312.797	1.74959
313.013	2.45685
313.228	1.24395
313.444	1.75362
313.659	1.3021
313.875	2.22077
314.09	1.65243
314.306	3.29524
314.521	2.66144
314.737	2.45494
314.952	1.90446
315.168	1.67371
315.383	2.14426
315.599	1.71043
315.814	1.44908
316.029	2.4097
316.245	0.5905
316.46	0.55337
316.675	2.8863
316.891	3.38787
317.106	4.37598
317.321	2.06805
317.537	2.39428
317.752	2.56758
317.967	2.7072
318.183	1.05084
318.398	1.4684
318.613	2.46407
318.828	3.18236
319.043	2.5643
319.259	1.53223
319.474	2.04554
319.689	2.99796
319.904	0.44686
320.119	2.42702
320.334	2.16912
320.549	1.67913
320.765	2.77511
320.98	2.07011
321.195	2.57094
321.41	1.82074
321.625	2.40943
321.84	3.49629
322.055	3.51505
322.27	1.2829
322.485	1.00491
322.7	2.04908
322.915	2.68637
323.13	1.05258
323.345	3.13321
323.56	2.65827
323.775	2.35992
323.989	2.2307
324.204	2.03272
324.419	2.76582
324.634	0.78746
324.849	1.7125
325.064	4.8602
325.279	2.69769
325.493	2.33544
325.708	2.75175
325.923	1.21484
326.138	1.20429
326.352	3.32782
326.567	2.93399
326.782	1.58736
326.997	1.30349
327.211	2.37325
327.426	2.19386
327.641	1.46149
327.855	0.45991
328.07	2.07631
328.285	3.26896
328.499	1.53923
328.714	2.04887
328.928	2.53399
329.143	1.74924
329.358	2.67284
329.572	2.78106
329.787	2.96859
330.001	4.02499
330.216	0.83151
330.43	3.47252
330.645	3.43324
330.859	2.67686
331.074	1.39758
331.288	2.05741
331.503	2.97286
331.717	1.06411
331.931	2.09176
332.146	2.04496
332.36	3.40169
332.575	2.30002
332.789	2.09813
333.003	2.03297
333.218	2.26008
333.432	1.2993
333.646	2.6626
333.86	3.21499
334.075	3.33609
334.289	1.48144
334.503	1.12261
334.717	2.16759
334.932	2.25413
335.146	3.02277
335.36	1.65612
335.574	2.4549
335.788	2.34317
336.003	2.8551
336.217	2.29026
336.431	2.37643
336.645	1.36197
336.859	0.837
337.073	1.56023
337.287	2.17027
337.501	0.97335
337.715	2.08797
337.929	2.78058
338.143	0.95972
338.357	1.84236
338.571	1.1351
338.785	2.23623
338.999	1.63287
339.213	1.38981
339.427	0.718
339.641	2.86126
339.855	1.61868
340.069	1.39418
340.283	2.62145
340.497	3.50985
340.711	2.16785
340.924	1.56953
341.138	0.95769
341.352	0.90567
341.566	2.15296
341.78	0.43143
341.993	1.48714
342.207	0.99203
342.421	2.01131
342.635	1.77498
342.848	1.31865
343.062	0.15403
343.276	1.32295
343.49	3.58135
343.703	1.27493
343.917	2.61141
344.131	2.60766
344.344	1.24415
344.558	1.49089
344.771	0.91511
344.985	3.22674
345.199	2.95699
345.412	2.07814
345.626	2.04082
345.839	0.58556
346.053	0.83651
346.266	0.92837
346.48	2.40491
346.693	2.05791
346.907	2.01006
347.12	1.12392
347.334	2.07721
347.547	2.07912
347.76	1.37341
347.974	2.7306
348.187	2.08342
348.401	1.30908
348.614	1.28967
348.827	1.38092
349.041	2.17205
349.254	0.51837
349.467	1.60065
349.681	0.72015
349.894	1.23193
350.107	2.75194
350.32	3.06672
350.534	0.53411
350.747	1.40448
350.96	1.10575
351.173	1.21018
351.386	1.5342
351.6	1.32049
351.813	1.15349
352.026	1.49817
352.239	0.62062
352.452	1.46933
352.665	2.41304
352.878	1.70825
353.092	3.22336
353.305	2.22238
353.518	1.83947
353.731	1.0409
353.944	2.55051
354.157	1.25622
354.37	0.92486
354.583	0.91605
354.796	0.34144
355.009	2.33744
355.222	1.83223
355.435	1.63438
355.647	2.38574
355.86	0.85127
356.073	1.51683
356.286	1.25068
356.499	2.05858
356.712	1.83532
356.925	2.05083
357.138	2.21877
357.35	0.87717
357.563	1.35682
357.776	1.63487
357.989	1.18192
358.201	1.80382
358.414	1.62648
358.627	2.49652
358.84	1.29511
359.052	0.69157
359.265	0.82755
359.478	2.39834
359.69	-0.31283
359.903	1.9343
360.116	2.08664
360.328	0.38694
360.541	2.03604
360.753	0.7275
360.966	0.99735
361.179	1.05361
361.391	0.95169
361.604	0.74299
361.816	1.06228
362.029	0.87896
362.241	0.77018
362.454	0.85984
362.666	0.63398
362.879	1.41246
363.091	1.08699
363.304	0.7633
363.516	1.33547
363.728	0.53588
363.941	1.74935
364.153	1.00028
364.366	-0.08417
364.578	0.62799
364.79	1.48848
365.003	1.24921
365.215	0.96372
365.427	1.68366
365.639	2.12241
365.852	1.44179
366.064	3.13956
366.276	1.05958
366.488	1.62795
366.701	0.99212
366.913	1.28954
367.125	1.12684
367.337	0.84692
367.549	0.97826
367.762	1.44193
367.974	1.42817
368.186	0.77749
368.398	2.00762
368.61	1.8721
368.822	1.79408
369.034	1.34365
369.246	1.78686
369.458	3.3621
369.67	0.74026
369.882	2.67086
370.094	0.14573
370.306	2.6501
370.518	1.11654
370.73	0.80066
370.942	0.81951
371.154	1.19131
371.366	0.94207
371.578	1.42698
371.79	0.81205
372.002	2.16778
372.214	2.6494
372.425	1.36901
372.637	2.23968
372.849	1.52562
373.061	0.00204
373.273	1.65738
373.484	1.5218
373.696	1.92692
373.908	-0.07308
374.12	2.26301
374.331	1.58155
374.543	0.87352
374.755	0.68984
374.967	1.47093
375.178	1.71208
375.39	1.08631
375.602	1.37379
375.813	0.44117
376.025	0.54067
376.236	1.45237
376.448	1.40905
376.66	0.92408
376.871	0.98276
377.083	2.17801
377.294	2.17474
377.506	0.95254
377.717	2.16064
377.929	1.46631
378.14	0.80225
378.352	1.6362
378.563	1.48784
378.775	2.19934
378.986	0.73922
379.197	1.29314
379.409	0.91919
379.62	1.86509
379.832	1.68202
380.043	1.22806
380.254	1.37432
380.466	0.67877
380.677	3.25645
380.888	2.70024
381.1	3.02466
381.311	2.89099
381.522	1.31054
381.733	3.36914
381.945	1.25128
382.156	1.47696
382.367	0.97577
382.578	3.32532
382.789	3.22063
383.001	1.14063
383.212	2.25083
383.423	2.39586
383.634	2.19941
383.845	1.74838
384.056	1.13495
384.267	1.47131
384.478	1.35153
384.69	0.61661
384.901	1.65972
385.112	1.65081
385.323	2.49644
385.534	1.76902
385.745	1.65792
385.956	1.72037
386.167	0.86084
386.378	1.75816
386.588	0.74007
386.799	1.05605
387.01	0.4549
387.221	2.04825
387.432	1.36461
387.643	2.70335
387.854	1.2955
388.065	1.26706
388.275	1.35143
388.486	1.26296
388.697	1.31576
388.908	1.23816
389.119	2.29311
389.329	2.59688
389.54	1.52948
389.751	1.72021
389.962	2.35982
390.172	1.74229
390.383	1.21611
390.594	1.1899
390.804	1.04546
391.015	1.10573
391.226	1.62093
391.436	1.87182
391.647	1.7999
391.858	1.92424
392.068	0.53266
392.279	0.83772
392.489	1.58575
392.7	2.3036
392.91	0.97566
393.121	1.1434
393.331	1.85461
393.542	2.28805
393.752	2.01226
393.963	1.78806
394.173	1.69083
394.384	1.93438
394.594	1.61143
394.804	1.00866
395.015	1.73805
395.225	1.97971
395.436	1.00609
395.646	1.96409
395.856	1.19095
396.067	0.80026
396.277	2.25086
396.487	1.97084
396.697	1.80328
396.908	1.98807
397.118	2.17364
397.328	1.90841
397.538	2.34032
397.749	1.32353
397.959	2.28538
398.169	2.28997
398.379	0.97183
398.589	2.35783
398.8	1.872
399.01	1.79152
399.22	1.65087
399.43	3.28208
399.64	1.70856
399.85	2.31307
400.06	1.88555
400.27	1.42926
400.48	1.86309
400.69	2.92784
400.9	1.53294
401.11	1.39574
401.32	2.44406
401.53	1.7637
401.74	2.92515
401.95	2.32815
402.16	1.34361
402.37	2.16828
402.58	1.56568
402.79	2.42763
403	2.65395
403.209	1.64893
403.419	2.6067
403.629	1.58246
403.839	2.55318
404.049	2.54828
404.258	1.67546
404.468	1.60605
404.678	2.33348
404.888	2.63095
405.097	1.56616
405.307	2.06389
405.517	2.41331
405.727	2.30296
405.936	1.94734
406.146	2.2511
406.356	2.90152
406.565	2.10296
406.775	1.86962
406.984	1.83938
407.194	3.15644
407.404	2.13562
407.613	2.41264
407.823	2.70864
408.032	2.84405
408.242	2.91465
408.451	1.90096
408.661	2.25228
408.87	3.39192
409.08	1.88293
409.289	2.49828
409.499	2.38263
409.708	2.38886
409.918	1.27721
410.127	2.40017
410.336	3.27006
410.546	2.74334
410.755	2.06783
410.964	2.20195
411.174	1.91505
411.383	2.65051
411.592	2.69359
411.802	1.80499
412.011	2.9453
412.22	2.3259
412.429	3.49016
412.639	3.41077
412.848	3.09874
413.057	3.25645
413.266	3.31819
413.475	2.63833
413.685	2.94184
413.894	3.0346
414.103	3.44513
414.312	3.08824
414.521	2.54209
414.73	2.64098
414.939	3.97841
415.148	3.06118
415.357	2.86856
415.566	2.48572
415.776	2.44826
415.985	2.45156
416.194	3.21269
416.403	3.73448
416.611	2.05838
416.82	2.46665
417.029	2.85814
417.238	2.49005
417.447	2.25631
417.656	2.57598
417.865	2.34984
418.074	2.56466
418.283	2.76244
418.492	3.29818
418.7	3.12293
418.909	3.78728
419.118	3.06903
419.327	3.2605
419.536	3.16384
419.744	2.9021
419.953	3.93662
420.162	3.94457
420.371	3.20922
420.579	3.30825
420.788	4.10608
420.997	4.17664
421.205	4.22004
421.414	4.10264
421.623	4.05664
421.831	3.79777
422.04	4.28558
422.249	3.57773
422.457	4.09618
422.666	3.51869
422.874	4.34249
423.083	4.351
423.291	4.33191
423.5	4.13819
423.708	4.35328
423.917	4.64312
424.125	4.26569
424.334	4.06974
424.542	5.51038
424.751	5.03041
424.959	4.76486
425.167	4.98161
425.376	4.81201
425.584	4.0771
425.793	4.28804
426.001	3.54607
426.209	4.02698
426.418	3.2437
426.626	3.1723
426.834	3.05932
427.042	3.39731
