Data from WindowProjectSample_Transmission__86__00086.txt Node

Date: Sat May 03 18:11:25 EDT 2025
User: jessi
Spectrometer: SR400872
Trigger mode: 0
Integration Time (sec): 5.000010E-1
Scans to average: 6
Electric dark correction enabled: true
Nonlinearity correction enabled: true
Boxcar width: 0
XAxis mode: Wavelengths
Number of Pixels in Spectrum: 3648
>>>>>Begin Spectral Data<<<<<
184.909	3369.91482
185.132	4060.35765
185.355	-4236.06693
185.578	4238.24823
185.801	-385.99563
186.024	-4748.89082
186.247	1768.30566
186.47	442.65433
186.693	30.68844
186.916	6101.17373
187.139	3190.08279
187.362	-2003.2256
187.585	5394.48781
187.808	30579.87546
188.031	-73.39991
188.254	-3690.70289
188.476	727.21379
188.699	3744.5457
188.922	-265.72403
189.145	-6919.21238
189.368	-402.53475
189.591	-811.15099
189.813	-3002.03446
190.036	946.20267
190.259	-9226.25858
190.482	1271.46425
190.705	4029.32725
190.927	-2002.13725
191.15	-6669.62242
191.373	6057.40382
191.595	-1150.96205
191.818	2092.32365
192.041	-519.95847
192.263	1929.19891
192.486	-2660.7918
192.709	-23487.91499
192.931	1878.24415
193.154	-3789.02096
193.377	-2366.34137
193.599	4508.38057
193.822	1707.89575
194.044	5764.20547
194.267	906.62791
194.489	-242.57164
194.712	2429.79168
194.934	9066.44543
195.157	-26730.64173
195.379	2405.98678
195.602	1673.05146
195.824	1484.61564
196.047	45248.07963
196.269	3463.16616
196.492	-1981.97369
196.714	-1299.2485
196.936	1877.76791
197.159	-11789.05249
197.381	-406.69389
197.604	-3862.08645
197.826	-16972.01178
198.048	9522.56299
198.271	-8308.55508
198.493	4476.9145
198.715	3843.42547
198.938	-757.26874
199.16	-19078.61497
199.382	1154.78248
199.604	-1723.89857
199.827	-3792.74636
200.049	2217.75516
200.271	-6852.38191
200.493	-44373.81537
200.715	3701.25696
200.938	-3062.05139
201.16	-2766.0201
201.382	-1662.97013
201.604	-3183.36777
201.826	3585.15981
202.048	3666.01832
202.27	-1035.48317
202.492	-3304.35099
202.715	-1286.93825
202.937	-18251.89863
203.159	2605.82494
203.381	2283.53028
203.603	-2902.93938
203.825	-921.03339
204.047	60279.35232
204.269	-1425.41021
204.491	-1250.78001
204.713	66460.76044
204.935	-3075.83809
205.156	-968.52849
205.378	-4306.81925
205.6	-1293.77596
205.822	2374.11157
206.044	-409.8949
206.266	6248.01464
206.488	836.95732
206.71	3189.4366
206.932	1644.82053
207.153	-1704.58746
207.375	-2773.67183
207.597	3856.793
207.819	29717.80436
208.041	3976.09752
208.262	-1599.1036
208.484	-1153.79839
208.706	-1447.88022
208.927	2805.22099
209.149	4595.6635
209.371	-5118.15538
209.593	397.83544
209.814	-29626.38851
210.036	2766.63837
210.258	-742.8619
210.479	4063.98165
210.701	-3190.92317
210.922	-11166.60416
211.144	-989.09836
211.366	5120.72097
211.587	-2376.84474
211.809	-4464.67289
212.03	-916.05165
212.252	-623.04601
212.473	3472.65982
212.695	-739.40153
212.916	-860.16365
213.138	652.30652
213.359	-1494.4344
213.581	13723.66779
213.802	-2363.75048
214.024	-2289.04426
214.245	-6308.27423
214.466	-214.81238
214.688	-3080.90744
214.909	-20157.11701
215.131	-4645.29258
215.352	-2279.85584
215.573	11312.65421
215.795	1613.99016
216.016	6649.061
216.237	-574.78104
216.459	6695.33611
216.68	-3508.79227
216.901	-2837.84316
217.122	-2262.33575
217.344	-7031.26154
217.565	-2950.33847
217.786	2252.84473
218.007	1610.15782
218.228	-605.66037
218.45	-4570.60029
218.671	1644.08051
218.892	3546.53958
219.113	1603.42947
219.334	143.85242
219.555	-7080.12349
219.776	11452.18979
219.997	4349.25886
220.219	1870.78583
220.44	1033.68286
220.661	1061.80068
220.882	-2644.36472
221.103	-1099.30598
221.324	2360.88872
221.545	2972.81497
221.766	-3615.85293
221.987	-493.90799
222.208	-9858.359
222.429	166999.22709
222.65	-482.47056
222.87	-9511.79788
223.091	2581.73796
223.312	-1255.26233
223.533	2563.25891
223.754	2117.64889
223.975	2848.6628
224.196	-6396.13896
224.417	-2704.77
224.637	7390.17224
224.858	1355.6865
225.079	1274.46215
225.3	1123.2869
225.521	4833.23706
225.741	853.35461
225.962	1258.59441
226.183	-570.21429
226.404	1453.89647
226.624	1237.51426
226.845	1625.27211
227.066	878.03548
227.286	606.25966
227.507	198.55168
227.728	188.76868
227.948	285.60989
228.169	90.76369
228.389	90.56726
228.61	49.50605
228.831	67.00108
229.051	6.44879
229.272	39.25741
229.492	51.89964
229.713	15.79298
229.933	38.46033
230.154	33.00362
230.374	53.43429
230.595	41.75799
230.815	29.67151
231.036	37.61013
231.256	-8.11798
231.477	77.57241
231.697	44.66121
231.917	44.30236
232.138	62.25272
232.358	128.8671
232.579	118.40433
232.799	15.41709
233.019	108.9104
233.24	144.09206
233.46	46.985
233.68	74.45482
233.901	59.23947
234.121	32.72091
234.341	12.14188
234.561	-2.51674
234.782	30.32356
235.002	80.17172
235.222	-1.73657
235.442	70.27963
235.662	34.13665
235.883	73.66796
236.103	64.6814
236.323	49.45941
236.543	34.63551
236.763	48.05894
236.983	47.75864
237.203	51.13864
237.423	78.33415
237.643	106.26934
237.864	93.82193
238.084	26.79624
238.304	31.90292
238.524	58.99588
238.744	44.52444
238.964	75.29918
239.184	70.50573
239.404	73.61695
239.624	37.15105
239.843	69.79245
240.063	38.25712
240.283	26.92163
240.503	29.47855
240.723	25.12024
240.943	13.97304
241.163	21.68582
241.383	15.06913
241.603	7.92184
241.822	9.0355
242.042	6.92938
242.262	8.78688
242.482	9.28309
242.702	11.34258
242.921	3.98102
243.141	7.84625
243.361	6.21993
243.581	10.28465
243.8	8.81109
244.02	5.61797
244.24	10.42897
244.459	10.4126
244.679	20.81385
244.899	13.57787
245.118	15.94551
245.338	13.72707
245.558	16.06591
245.777	9.31449
245.997	10.72343
246.216	10.83848
246.436	6.63614
246.655	4.33171
246.875	3.5134
247.094	6.29993
247.314	2.20067
247.533	3.64245
247.753	4.7613
247.972	3.74863
248.192	1.42636
248.411	2.46174
248.631	4.18452
248.85	5.36328
249.07	4.14821
249.289	6.92463
249.508	5.16241
249.728	7.86868
249.947	8.31814
250.166	9.74401
250.386	6.13098
250.605	8.33684
250.824	12.4764
251.044	8.84995
251.263	27.26468
251.482	14.49442
251.701	13.9686
251.921	0.64126
252.14	4.01885
252.359	4.43286
252.578	11.04806
252.798	3.81823
253.017	10.05371
253.236	5.46099
253.455	6.76691
253.674	13.26818
253.893	6.65032
254.112	8.64504
254.331	13.5599
254.551	11.21405
254.77	4.22838
254.989	16.59706
255.208	13.03904
255.427	16.46371
255.646	14.50533
255.865	24.25489
256.084	8.99441
256.303	12.32458
256.522	16.04921
256.741	3.19785
256.96	4.61995
257.179	9.57103
257.397	11.85773
257.616	6.70236
257.835	7.42612
258.054	16.38032
258.273	11.11082
258.492	12.31312
258.711	7.35455
258.93	3.20686
259.148	4.64624
259.367	4.5356
259.586	5.93595
259.805	2.79171
260.023	5.40004
260.242	4.15704
260.461	2.97554
260.68	1.4461
260.898	4.94248
261.117	1.53684
261.336	1.10881
261.554	4.12579
261.773	4.34637
261.992	1.16032
262.21	3.97058
262.429	4.61597
262.648	8.13641
262.866	9.49488
263.085	6.07996
263.303	5.35386
263.522	9.87909
263.74	10.30297
263.959	16.1478
264.178	8.8357
264.396	7.31112
264.615	5.70858
264.833	12.98936
265.051	12.0555
265.27	11.44019
265.488	12.09517
265.707	7.86679
265.925	12.75427
266.144	5.10763
266.362	6.86916
266.58	6.84276
266.799	5.80957
267.017	7.01256
267.235	6.03563
267.454	3.72433
267.672	2.55771
267.89	4.95497
268.109	5.20657
268.327	5.06624
268.545	1.40528
268.763	4.37809
268.982	2.17296
269.2	6.16487
269.418	3.18538
269.636	2.71992
269.854	4.63392
270.073	3.60376
270.291	1.76234
270.509	2.27163
270.727	5.03082
270.945	8.29866
271.163	8.0765
271.381	2.07815
271.599	3.01457
271.817	5.90544
272.036	1.86795
272.254	3.82739
272.472	2.93096
272.69	2.90092
272.908	2.76239
273.126	4.97852
273.344	5.84915
273.562	2.22573
273.779	3.20541
273.997	4.19768
274.215	5.00093
274.433	3.57778
274.651	5.15567
274.869	5.43697
275.087	2.97987
275.305	4.90357
275.523	2.41856
275.74	3.96206
275.958	6.28216
276.176	8.76887
276.394	2.87519
276.612	3.45865
276.829	3.52024
277.047	3.11664
277.265	3.49364
277.483	3.8977
277.7	4.87148
277.918	3.78357
278.136	7.1901
278.353	3.72491
278.571	1.74953
278.789	5.49767
279.006	0.98161
279.224	3.54113
279.442	5.59952
279.659	3.86318
279.877	3.12807
280.094	6.15605
280.312	1.54616
280.529	4.00858
280.747	1.10012
280.964	2.90607
281.182	6.7063
281.399	3.19983
281.617	4.57229
281.834	3.15912
282.052	2.67448
282.269	3.4842
282.487	2.96079
282.704	2.16171
282.921	2.71289
283.139	3.90264
283.356	4.73612
283.574	4.19215
283.791	2.32548
284.008	5.92403
284.226	3.08288
284.443	3.59517
284.66	4.6952
284.877	3.9031
285.095	2.46001
285.312	1.8541
285.529	1.25853
285.746	0.94425
285.964	2.19393
286.181	1.59168
286.398	2.32664
286.615	3.03777
286.832	3.02577
287.05	1.00512
287.267	2.06259
287.484	2.19983
287.701	3.15674
287.918	2.76306
288.135	3.08498
288.352	1.69404
288.569	1.79402
288.786	2.73655
289.003	2.00825
289.22	3.32812
289.437	1.99429
289.654	3.32331
289.871	3.59526
290.088	3.38567
290.305	2.62051
290.522	1.97733
290.739	2.53242
290.956	3.53942
291.173	4.14925
291.39	3.90462
291.607	2.81459
291.824	2.04484
292.04	1.40867
292.257	3.2682
292.474	3.55878
292.691	2.40206
292.908	1.37412
293.125	1.98427
293.341	1.31348
293.558	5.68011
293.775	2.39591
293.992	2.48251
294.208	0.88889
294.425	1.51256
294.642	2.25623
294.858	3.02708
295.075	0.95233
295.292	2.26939
295.508	2.80901
295.725	4.2336
295.942	2.17051
296.158	1.7317
296.375	2.79417
296.591	2.01782
296.808	2.42132
297.024	2.92597
297.241	3.25222
297.458	3.28681
297.674	1.20298
297.891	2.89668
298.107	3.03535
298.323	2.25843
298.54	4.4602
298.756	2.76448
298.973	1.96683
299.189	4.96058
299.406	3.23375
299.622	4.67664
299.838	5.05602
300.055	4.70168
300.271	3.05307
300.487	3.13302
300.704	3.94571
300.92	3.58347
301.136	7.1627
301.353	5.32391
301.569	4.7708
301.785	5.18523
302.001	5.95717
302.218	5.53366
302.434	5.82399
302.65	4.15472
302.866	4.89637
303.083	7.85664
303.299	8.03589
303.515	5.70522
303.731	6.35131
303.947	4.72686
304.163	5.51827
304.379	6.18203
304.595	6.53345
304.812	5.33985
305.028	5.38334
305.244	5.69621
305.46	6.83325
305.676	7.50875
305.892	8.0405
306.108	7.24891
306.324	6.30189
306.54	8.38928
306.756	6.91425
306.972	6.62993
307.187	6.87288
307.403	7.7352
307.619	5.96213
307.835	7.49388
308.051	8.01545
308.267	5.58296
308.483	8.3351
308.699	7.49214
308.914	7.37669
309.13	6.85603
309.346	6.29044
309.562	6.46907
309.778	6.10672
309.993	7.77435
310.209	7.9792
310.425	6.27913
310.641	7.98449
310.856	6.98326
311.072	6.99401
311.288	7.53943
311.503	8.37812
311.719	6.32507
311.935	6.56957
312.15	8.70933
312.366	8.52374
312.581	8.63012
312.797	8.32576
313.013	8.65502
313.228	7.51061
313.444	7.34431
313.659	7.10117
313.875	8.22591
314.09	7.47736
314.306	8.8475
314.521	8.5035
314.737	8.32964
314.952	7.94012
315.168	7.86545
315.383	8.33963
315.599	7.00403
315.814	7.67633
316.029	8.34244
316.245	7.04595
316.46	5.9587
316.675	8.70915
316.891	9.6308
317.106	10.81926
317.321	8.18621
317.537	8.5936
317.752	8.71507
317.967	8.69819
318.183	7.144
318.398	7.48358
318.613	8.80983
318.828	9.5786
319.043	8.50613
319.259	7.59951
319.474	8.37737
319.689	9.19109
319.904	6.13202
320.119	9.5227
320.334	7.76406
320.549	8.26868
320.765	9.28647
320.98	8.64807
321.195	8.48882
321.41	8.3487
321.625	8.49568
321.84	9.65879
322.055	9.75894
322.27	7.56356
322.485	6.88801
322.7	8.74492
322.915	8.90624
323.13	7.90699
323.345	10.55394
323.56	9.97142
323.775	9.29059
323.989	9.32212
324.204	8.61231
324.419	9.69341
324.634	7.62616
324.849	8.81071
325.064	11.42866
325.279	10.17096
325.493	9.4511
325.708	9.81942
325.923	7.91929
326.138	8.89501
326.352	10.13766
326.567	9.74197
326.782	8.19142
326.997	8.5758
327.211	9.42397
327.426	9.16833
327.641	8.73207
327.855	7.56016
328.07	9.74042
328.285	11.02841
328.499	8.67524
328.714	9.42022
328.928	9.13224
329.143	9.22707
329.358	10.39141
329.572	9.92502
329.787	10.7353
330.001	11.78128
330.216	7.09136
330.43	11.48208
330.645	10.26855
330.859	10.13643
331.074	7.98556
331.288	9.27688
331.503	11.30886
331.717	7.6837
331.931	9.29305
332.146	9.75962
332.36	11.53777
332.575	9.72853
332.789	9.41831
333.003	9.96058
333.218	10.31568
333.432	9.60397
333.646	10.4898
333.86	11.66252
334.075	11.4002
334.289	9.3247
334.503	8.12969
334.717	10.98062
334.932	9.95604
335.146	10.44283
335.36	8.37856
335.574	10.25802
335.788	9.33079
336.003	10.0338
336.217	10.27308
336.431	9.51174
336.645	8.9074
336.859	8.50709
337.073	9.70851
337.287	10.60208
337.501	8.88463
337.715	11.26936
337.929	10.85746
338.143	9.70826
338.357	10.31116
338.571	10.32719
338.785	11.69059
338.999	9.75445
339.213	9.9229
339.427	9.41509
339.641	11.38597
339.855	9.50962
340.069	9.15968
340.283	11.54843
340.497	11.70065
340.711	11.38178
340.924	10.39075
341.138	9.66505
341.352	9.23543
341.566	10.70435
341.78	9.37604
341.993	10.29566
342.207	10.11766
342.421	11.06282
342.635	10.62524
342.848	10.48316
343.062	7.95353
343.276	10.26453
343.49	12.45972
343.703	10.13842
343.917	11.76525
344.131	12.09326
344.344	10.03509
344.558	10.333
344.771	9.52005
344.985	11.96794
345.199	12.83961
345.412	11.48196
345.626	11.53891
345.839	9.62541
346.053	10.07897
346.266	10.26848
346.48	11.49453
346.693	11.32721
346.907	11.70513
347.12	10.13585
347.334	11.00114
347.547	11.54065
347.76	11.20253
347.974	11.90594
348.187	11.09825
348.401	10.97872
348.614	9.73005
348.827	11.21449
349.041	11.71486
349.254	9.45058
349.467	10.86489
349.681	10.61928
349.894	10.20021
350.107	12.58952
350.32	13.47066
350.534	10.10665
350.747	11.15436
350.96	10.61956
351.173	10.61786
351.386	11.25048
351.6	10.95955
351.813	11.23277
352.026	11.28491
352.239	10.69214
352.452	10.93017
352.665	12.85376
352.878	11.17083
353.092	13.9596
353.305	12.11279
353.518	11.64324
353.731	10.33775
353.944	12.74749
354.157	11.25301
354.37	11.37655
354.583	10.05132
354.796	10.94607
355.009	12.56033
355.222	12.20313
355.435	11.91091
355.647	13.07321
355.86	11.36126
356.073	11.96189
356.286	11.36832
356.499	12.95683
356.712	13.04208
356.925	12.67759
357.138	12.89046
357.35	11.54477
357.563	11.65157
357.776	12.53338
357.989	12.43309
358.201	12.96162
358.414	12.62083
358.627	13.65512
358.84	12.44566
359.052	11.4054
359.265	11.59761
359.478	13.15555
359.69	10.49005
359.903	13.31956
360.116	13.62894
360.328	11.54477
360.541	13.46539
360.753	12.35815
360.966	12.53276
361.179	12.8759
361.391	12.7664
361.604	12.28394
361.816	12.69667
362.029	12.8312
362.241	12.22462
362.454	12.99484
362.666	12.3424
362.879	13.57047
363.091	12.55568
363.304	12.63737
363.516	12.56669
363.728	12.15053
363.941	13.48686
364.153	13.24912
364.366	11.66837
364.578	12.52228
364.79	13.47324
365.003	13.51364
365.215	12.71391
365.427	14.05304
365.639	14.01272
365.852	13.38692
366.064	14.3539
366.276	13.28483
366.488	13.39774
366.701	13.35575
366.913	13.08653
367.125	13.42944
367.337	12.92544
367.549	13.01874
367.762	13.07564
367.974	13.42133
368.186	13.29853
368.398	14.22729
368.61	13.84093
368.822	14.05336
369.034	13.03755
369.246	14.28193
369.458	15.59495
369.67	12.88693
369.882	14.85189
370.094	12.17641
370.306	14.84558
370.518	13.62655
370.73	13.31053
370.942	13.68715
371.154	14.03379
371.366	13.96772
371.578	14.56621
371.79	14.11484
372.002	14.99519
372.214	15.8721
372.425	13.99951
372.637	15.65135
372.849	14.47689
373.061	12.35447
373.273	14.5603
373.484	14.65837
373.696	14.83728
373.908	12.46724
374.12	14.76178
374.331	14.92247
374.543	13.7737
374.755	13.54335
374.967	14.30771
375.178	15.61802
375.39	14.02738
375.602	14.64572
375.813	13.33797
376.025	13.92757
376.236	14.80359
376.448	14.84523
376.66	14.62534
376.871	14.76599
377.083	15.33316
377.294	16.40931
377.506	14.60753
377.717	15.99804
377.929	15.03105
378.14	14.60985
378.352	15.5487
378.563	15.66669
378.775	15.93519
378.986	14.2323
379.197	15.49555
379.409	14.50905
379.62	15.69435
379.832	15.24123
380.043	14.90542
380.254	15.67433
380.466	14.32819
380.677	17.50461
380.888	17.0106
381.1	17.50442
381.311	17.60199
381.522	15.82542
381.733	17.47982
381.945	15.5106
382.156	15.20914
382.367	15.3868
382.578	17.8975
382.789	18.20245
383.001	14.9488
383.212	17.13168
383.423	17.32531
383.634	16.47025
383.845	16.58105
384.056	15.60246
384.267	16.05922
384.478	16.09544
384.69	15.13985
384.901	16.4136
385.112	16.23155
385.323	17.59864
385.534	16.2547
385.745	16.53029
385.956	16.34069
386.167	15.52796
386.378	16.66953
386.588	16.03833
386.799	15.45893
387.01	15.20636
387.221	16.95865
387.432	16.29832
387.643	17.33439
387.854	16.05669
388.065	15.87474
388.275	16.24418
388.486	15.77547
388.697	16.79146
388.908	15.94858
389.119	17.42071
389.329	17.56322
389.54	16.68889
389.751	16.85332
389.962	17.5921
390.172	16.57955
390.383	16.69672
390.594	16.20211
390.804	16.21595
391.015	16.40943
391.226	16.81825
391.436	16.96945
391.647	17.13636
391.858	17.04537
392.068	15.80873
392.279	16.24614
392.489	17.35291
392.7	17.41254
392.91	16.65176
393.121	16.11541
393.331	17.42235
393.542	17.61933
393.752	17.72815
393.963	17.50178
394.173	17.39916
394.384	17.68106
394.594	17.17891
394.804	16.4037
395.015	17.10272
395.225	17.68812
395.436	16.4865
395.646	17.54649
395.856	17.03377
396.067	16.25302
396.277	18.05833
396.487	17.62197
396.697	17.89555
396.908	17.96799
397.118	17.82427
397.328	17.76229
397.538	18.1561
397.749	16.93562
397.959	17.82321
398.169	17.75738
398.379	16.52819
398.589	17.68859
398.8	17.83349
399.01	17.72172
399.22	17.52961
399.43	19.00937
399.64	17.76463
399.85	17.93241
400.06	17.66883
400.27	16.71055
400.48	17.56956
400.69	18.48978
400.9	16.969
401.11	16.53812
401.32	18.24268
401.53	17.21587
401.74	18.77703
401.95	17.97386
402.16	17.90057
402.37	17.92122
402.58	17.33074
402.79	17.84033
403	18.42442
403.209	17.07156
403.419	18.72561
403.629	17.28755
403.839	18.59557
404.049	18.64885
404.258	17.56717
404.468	17.56248
404.678	18.36925
404.888	18.98426
405.097	17.99931
405.307	17.96089
405.517	18.51958
405.727	18.32651
405.936	17.66141
406.146	18.42343
406.356	19.09723
406.565	18.04727
406.775	17.72379
406.984	17.70327
407.194	19.54658
407.404	18.21292
407.613	18.3932
407.823	18.8604
408.032	19.07715
408.242	18.97468
408.451	17.85332
408.661	18.10019
408.87	19.3674
409.08	17.64234
409.289	18.64265
409.499	18.74876
409.708	18.17908
409.918	17.02321
410.127	18.83454
410.336	19.57176
410.546	19.17913
410.755	18.03554
410.964	18.16281
411.174	17.3728
411.383	18.82082
411.592	18.50935
411.802	17.7131
412.011	18.66352
412.22	18.39
412.429	19.00434
412.639	19.31422
412.848	18.93853
413.057	19.80747
413.266	19.01675
413.475	18.37385
413.685	18.93515
413.894	19.20381
414.103	19.16682
414.312	19.11451
414.521	18.28375
414.73	18.97819
414.939	19.87069
415.148	19.0375
415.357	18.92938
415.566	18.82856
415.776	18.36377
415.985	18.43013
416.194	19.30054
416.403	20.15739
416.611	17.86938
416.82	18.57781
417.029	19.03489
417.238	18.46454
417.447	18.49805
417.656	19.04671
417.865	18.98458
418.074	19.52444
418.283	20.90337
418.492	22.65818
418.7	22.44239
418.909	24.81055
419.118	23.31978
419.327	24.17739
419.536	24.23114
419.744	24.62623
419.953	27.02996
420.162	27.31021
420.371	26.95984
420.579	28.60768
420.788	29.54803
420.997	29.78698
421.205	30.42523
421.414	30.04155
421.623	30.21725
421.831	29.49897
