Data from WindowProjectSample3_Transmission__43__00043.txt Node

Date: Sun May 04 11:09:51 EDT 2025
User: jessi
Spectrometer: SR400872
Trigger mode: 0
Integration Time (sec): 5.000050E-1
Scans to average: 20
Electric dark correction enabled: true
Nonlinearity correction enabled: true
Boxcar width: 0
XAxis mode: Wavelengths
Number of Pixels in Spectrum: 3648
>>>>>Begin Spectral Data<<<<<
184.909	-1279.25114
185.132	-1487.64
185.355	-1148.04928
185.578	-1073.444
185.801	1004.78638
186.024	-945.63074
186.247	-5278.52789
186.47	-1912.90305
186.693	-144.51716
186.916	-386.32608
187.139	-778.65549
187.362	-2886.92941
187.585	-678.99946
187.808	-5132.04436
188.031	9349.74086
188.254	-2246.48949
188.476	-8480.94916
188.699	-1007.00205
188.922	630.90528
189.145	-1211.66505
189.368	3365.65093
189.591	-2369.50136
189.813	-1521.72517
190.036	-887.2332
190.259	-1214.71518
190.482	-1614.54657
190.705	-2384.57529
190.927	-714.67595
191.15	-1475.05132
191.373	-1097.29198
191.595	-1302.37472
191.818	-1299.45884
192.041	-641.70565
192.263	-1133.71622
192.486	-516.83608
192.709	-1554.61156
192.931	-3333.02112
193.154	-1162.08354
193.377	-1609.039
193.599	-3177.58778
193.822	-3397.33021
194.044	-3224.03228
194.267	-1753.4447
194.489	-389.93209
194.712	-990.00526
194.934	-1726.80022
195.157	-779.67935
195.379	-1377.96578
195.602	-858.12198
195.824	-1292.00657
196.047	-2129.33575
196.269	-1079.23062
196.492	-1421.18722
196.714	-1251.9606
196.936	-1233.49883
197.159	-908.31544
197.381	-684.78588
197.604	-467.497
197.826	-2088.46121
198.048	-1095.17648
198.271	-1587.83899
198.493	-1104.66521
198.715	-952.69779
198.938	-3177.28416
199.16	-3872.21977
199.382	-1257.09106
199.604	-1145.70113
199.827	-1896.57513
200.049	-1645.89986
200.271	-1191.00512
200.493	-1409.20855
200.715	-994.13154
200.938	-832.42814
201.16	-926.53559
201.382	-978.54689
201.604	-1252.75501
201.826	-683.68494
202.048	-847.49546
202.27	-1380.5904
202.492	-1409.59651
202.715	-1979.00055
202.937	-2060.93191
203.159	-1362.96243
203.381	-1621.4834
203.603	-1030.44505
203.825	-4803.55748
204.047	-1602.98037
204.269	-1374.1074
204.491	-1215.20931
204.713	-1498.88816
204.935	-1403.48339
205.156	-2731.27008
205.378	-2735.75949
205.6	-1513.80526
205.822	-1097.63252
206.044	1327.23821
206.266	-1317.31961
206.488	-810.477
206.71	-1653.06155
206.932	-1779.96771
207.153	-1088.94917
207.375	-1340.6125
207.597	-1076.17446
207.819	-1108.26238
208.041	-1193.04685
208.262	-1652.30785
208.484	-903.16797
208.706	-2097.39218
208.927	-763.72965
209.149	-1278.60061
209.371	-1207.43732
209.593	-1681.09506
209.814	-632.0071
210.036	-1040.89307
210.258	-721.16899
210.479	-1060.18817
210.701	-1773.83067
210.922	-1282.36079
211.144	-948.50343
211.366	-1113.81816
211.587	1434.58178
211.809	-1133.18203
212.03	-6291.4336
212.252	919.02584
212.473	-917.98346
212.695	-18328.86355
212.916	-3508.78121
213.138	-1477.16404
213.359	-941.47782
213.581	-1422.16408
213.802	-864.44556
214.024	-1346.22122
214.245	-11444.1538
214.466	-950.3645
214.688	-1460.47484
214.909	-1045.98698
215.131	-2714.87233
215.352	-3770.18583
215.573	-1096.92138
215.795	-1773.11021
216.016	-1433.14342
216.237	-2877.74102
216.459	-1482.44853
216.68	-1037.01683
216.901	-1450.5101
217.122	10977.66957
217.344	-955.91904
217.565	-1295.949
217.786	-1315.0452
218.007	-965.85507
218.228	-1120.45634
218.45	-1104.58223
218.671	-1060.49152
218.892	-1029.99081
219.113	-1559.28536
219.334	-129.99894
219.555	-1635.19641
219.776	-1536.35885
219.997	-1230.798
220.219	16304.46995
220.44	-1235.10897
220.661	-3475.50784
220.882	-933.90995
221.103	1599.53704
221.324	-2806.15927
221.545	-1118.42742
221.766	-1295.08242
221.987	-1931.24793
222.208	-2121.4201
222.429	-752.87021
222.65	-903.73967
222.87	-1637.68631
223.091	-3374.61065
223.312	2871.2319
223.533	-1164.21443
223.754	-1545.67195
223.975	-2184.44885
224.196	8727.42168
224.417	-7779.00413
224.637	3934.74142
224.858	242.54634
225.079	-1845.47522
225.3	26526.65439
225.521	-1038.5502
225.741	-5005.64272
225.962	7083.88508
226.183	385.12141
226.404	-3682.38628
226.624	2434.11768
226.845	-82427.56378
227.066	-665011.45956
227.286	937.4997
227.507	300.58466
227.728	268.49029
227.948	658.57288
228.169	175.78611
228.389	172.34498
228.61	102.22006
228.831	135.50857
229.051	9.27129
229.272	71.18932
229.492	103.66482
229.713	30.65852
229.933	71.00826
230.154	61.38057
230.374	100.67346
230.595	72.33032
230.815	43.23361
231.036	70.70207
231.256	-9.13867
231.477	130.44953
231.697	75.72261
231.917	80.3217
232.138	116.345
232.358	241.39458
232.579	196.59516
232.799	30.49542
233.019	190.87669
233.24	233.9892
233.46	80.71651
233.68	121.57791
233.901	82.2831
234.121	56.52192
234.341	23.75508
234.561	-5.92232
234.782	45.36497
235.002	135.99498
235.222	-1.35064
235.442	118.92625
235.662	58.84259
235.883	112.16135
236.103	94.84953
236.323	68.23448
236.543	51.11033
236.763	69.46985
236.983	83.85658
237.203	78.84204
237.423	109.03859
237.643	176.1416
237.864	149.81031
238.084	36.63304
238.304	46.87928
238.524	84.4157
238.744	74.34347
238.964	130.13405
239.184	113.6258
239.404	124.21292
239.624	63.25696
239.843	105.23619
240.063	63.79442
240.283	40.97143
240.503	45.28155
240.723	44.32804
240.943	27.4261
241.163	34.80569
241.383	24.97906
241.603	12.71377
241.822	15.71023
242.042	10.57939
242.262	14.08763
242.482	15.47429
242.702	16.43331
242.921	5.2883
243.141	10.95786
243.361	10.31015
243.581	15.17557
243.8	12.42207
244.02	8.0635
244.24	14.53698
244.459	13.84634
244.679	29.31675
244.899	18.42056
245.118	22.56748
245.338	20.45721
245.558	23.25236
245.777	14.36675
245.997	17.02415
246.216	17.83454
246.436	10.25674
246.655	7.55271
246.875	5.73833
247.094	10.10432
247.314	3.63442
247.533	6.01227
247.753	6.98685
247.972	5.41892
248.192	2.29633
248.411	3.35719
248.631	5.61407
248.85	7.06536
249.07	6.96837
249.289	9.89079
249.508	6.97428
249.728	11.78857
249.947	11.35769
250.166	13.64627
250.386	7.29935
250.605	11.58908
250.824	18.53243
251.044	12.29147
251.263	39.64916
251.482	22.84285
251.701	19.38577
251.921	0.09856
252.14	6.15752
252.359	7.41801
252.578	16.47728
252.798	6.14368
253.017	14.26624
253.236	6.89282
253.455	9.59615
253.674	18.241
253.893	7.87489
254.112	13.441
254.331	18.15266
254.551	15.89369
254.77	8.93047
254.989	22.84903
255.208	18.036
255.427	26.90344
255.646	21.71114
255.865	33.3155
256.084	14.45629
256.303	18.91562
256.522	23.4367
256.741	5.59384
256.96	5.90811
257.179	13.74941
257.397	17.94285
257.616	9.45004
257.835	10.38303
258.054	24.84568
258.273	17.54786
258.492	17.75383
258.711	11.25543
258.93	5.34028
259.148	7.83953
259.367	7.28629
259.586	9.31793
259.805	4.19717
260.023	7.76436
260.242	5.69125
260.461	4.39183
260.68	2.28111
260.898	6.46335
261.117	2.34871
261.336	1.64748
261.554	5.56586
261.773	5.56373
261.992	1.5461
262.21	5.23682
262.429	5.92509
262.648	11.28265
262.866	12.71523
263.085	9.55188
263.303	7.85287
263.522	14.09523
263.74	14.14594
263.959	23.92847
264.178	12.63606
264.396	10.57155
264.615	7.94445
264.833	17.3632
265.051	15.3579
265.27	18.1615
265.488	17.48418
265.707	10.63275
265.925	17.19083
266.144	8.39368
266.362	9.55168
266.58	9.75966
266.799	8.08565
267.017	9.58882
267.235	8.68554
267.454	6.02345
267.672	2.97433
267.89	6.99905
268.109	7.44827
268.327	7.39357
268.545	1.55606
268.763	6.76342
268.982	3.05187
269.2	7.9487
269.418	5.12656
269.636	3.97572
269.854	7.26705
270.073	5.3582
270.291	3.23559
270.509	3.15237
270.727	7.20572
270.945	11.82296
271.163	11.3619
271.381	2.8695
271.599	4.82436
271.817	8.08096
272.036	3.01913
272.254	5.68589
272.472	3.92357
272.69	3.93992
272.908	4.36642
273.126	6.53849
273.344	8.46714
273.562	3.187
273.779	4.48681
273.997	6.91973
274.215	6.65816
274.433	4.69965
274.651	7.12178
274.869	7.18201
275.087	4.13783
275.305	6.70593
275.523	4.03206
275.74	4.76645
275.958	8.7952
276.176	12.66474
276.394	4.09378
276.612	5.26521
276.829	5.17988
277.047	4.82355
277.265	4.78168
277.483	5.74832
277.7	6.4888
277.918	5.47151
278.136	10.11213
278.353	5.071
278.571	3.12083
278.789	7.49009
279.006	1.89387
279.224	5.16995
279.442	8.14297
279.659	5.92132
279.877	3.77974
280.094	8.58985
280.312	2.0088
280.529	5.64523
280.747	2.11462
280.964	4.87771
281.182	9.00363
281.399	4.70221
281.617	6.13885
281.834	4.23049
282.052	3.30033
282.269	5.44909
282.487	4.09693
282.704	3.75387
282.921	3.6378
283.139	5.3929
283.356	6.88075
283.574	6.48389
283.791	3.0935
284.008	8.64623
284.226	4.98237
284.443	5.44794
284.66	7.13275
284.877	5.94345
285.095	3.64621
285.312	2.5609
285.529	1.63909
285.746	1.50396
285.964	3.41313
286.181	2.29605
286.398	3.22338
286.615	4.49453
286.832	4.40018
287.05	1.20411
287.267	2.98008
287.484	3.15525
287.701	4.46043
287.918	4.1378
288.135	4.44651
288.352	1.88841
288.569	2.38688
288.786	4.06952
289.003	3.11934
289.22	5.00791
289.437	2.85988
289.654	4.68801
289.871	4.73258
290.088	4.7947
290.305	3.76392
290.522	3.18608
290.739	3.41329
290.956	4.95651
291.173	5.77228
291.39	5.53698
291.607	3.85005
291.824	3.15111
292.04	2.40275
292.257	4.70882
292.474	5.16514
292.691	3.36812
292.908	1.58131
293.125	3.01986
293.341	1.89391
293.558	7.95925
293.775	3.68304
293.992	3.94495
294.208	1.35021
294.425	2.48661
294.642	3.32093
294.858	4.73284
295.075	1.16169
295.292	3.43545
295.508	4.07163
295.725	5.69151
295.942	2.96212
296.158	2.21725
296.375	3.49706
296.591	2.83791
296.808	2.83474
297.024	3.31536
297.241	3.724
297.458	3.92266
297.674	0.56631
297.891	3.08156
298.107	2.64128
298.323	1.87978
298.54	4.4619
298.756	2.53185
298.973	1.18184
299.189	4.70946
299.406	2.35946
299.622	4.89339
299.838	4.91169
300.055	4.51439
300.271	1.42117
300.487	2.07896
300.704	2.4678
300.92	1.69151
301.136	6.66333
301.353	5.10169
301.569	3.59162
301.785	4.00252
302.001	4.6394
302.218	4.30646
302.434	4.43721
302.65	2.15684
302.866	2.88349
303.083	7.14564
303.299	6.90046
303.515	3.87548
303.731	4.25202
303.947	2.01677
304.163	2.86692
304.379	4.03233
304.595	4.30928
304.812	2.94881
305.028	2.63905
305.244	3.42204
305.46	4.91267
305.676	5.13476
305.892	5.8688
306.108	4.78932
306.324	3.62712
306.54	6.68399
306.756	4.74129
306.972	4.53978
307.187	3.7777
307.403	6.36224
307.619	3.23101
307.835	5.71119
308.051	5.88171
308.267	2.7504
308.483	5.56694
308.699	4.95904
308.914	3.95223
309.13	4.21977
309.346	1.72485
309.562	2.57613
309.778	1.88863
309.993	4.7994
310.209	4.14245
310.425	2.41703
310.641	3.76198
310.856	2.62145
311.072	2.4825
311.288	3.96131
311.503	4.17537
311.719	1.75731
311.935	1.60592
312.15	4.70248
312.366	4.29616
312.581	4.77191
312.797	4.02196
313.013	5.16265
313.228	3.28267
313.444	3.96256
313.659	2.92127
313.875	4.77359
314.09	4.18828
314.306	6.47378
314.521	5.29426
314.737	5.40742
314.952	4.73519
315.168	4.51489
315.383	4.91614
315.599	3.9204
315.814	4.14418
316.029	5.68774
316.245	2.78841
316.46	1.94797
316.675	6.35875
316.891	7.41174
317.106	8.89078
317.321	5.27095
317.537	5.24005
317.752	5.74498
317.967	5.76719
318.183	3.46747
318.398	4.10478
318.613	6.2266
318.828	6.67084
319.043	5.95409
319.259	4.26668
319.474	4.95914
319.689	6.43397
319.904	2.02652
320.119	6.02057
320.334	4.9666
320.549	4.25347
320.765	6.57914
320.98	5.24241
321.195	5.88773
321.41	4.87251
321.625	6.09139
321.84	7.44617
322.055	7.39192
322.27	3.93782
322.485	3.04507
322.7	5.1932
322.915	6.41248
323.13	3.75563
323.345	7.2334
323.56	6.19312
323.775	5.93138
323.989	5.79424
324.204	5.1877
324.419	6.08555
324.634	2.97742
324.849	4.83321
325.064	7.83616
325.279	6.34869
325.493	5.75226
325.708	6.28661
325.923	3.82291
326.138	4.21535
326.352	7.37876
326.567	6.25671
326.782	4.34367
326.997	4.18233
327.211	6.05442
327.426	5.66645
327.641	4.57
327.855	2.80401
328.07	5.94882
328.285	7.82354
328.499	4.77919
328.714	5.64815
328.928	6.05132
329.143	5.16549
329.358	7.08997
329.572	6.57648
329.787	7.53906
330.001	9.35948
330.216	3.17006
330.43	8.00074
330.645	7.72853
330.859	6.7978
331.074	3.76259
331.288	5.26013
331.503	7.95783
331.717	3.83071
331.931	5.49261
332.146	5.92923
332.36	8.61836
332.575	6.05398
332.789	5.89223
333.003	5.37568
333.218	6.31559
333.432	4.63082
333.646	6.73152
333.86	8.0309
334.075	8.31251
334.289	4.88627
334.503	3.8851
334.717	6.49078
334.932	6.22967
335.146	6.89808
335.36	4.56498
335.574	6.31158
335.788	6.1064
336.003	6.94577
336.217	6.9773
336.431	6.1324
336.645	5.15665
336.859	4.09469
337.073	5.759
337.287	5.99249
337.501	4.35495
337.715	6.62198
337.929	6.92101
338.143	4.21668
338.357	5.51524
338.571	4.99509
338.785	6.80013
338.999	5.06596
339.213	5.06907
339.427	3.92477
339.641	7.66943
339.855	5.17825
340.069	4.78662
340.283	7.08943
340.497	8.05347
340.711	6.77774
340.924	5.91284
341.138	4.5531
341.352	3.94909
341.566	6.18487
341.78	3.73818
341.993	5.11385
342.207	4.79223
342.421	6.55711
342.635	5.72258
342.848	5.32638
343.062	2.63641
343.276	4.99759
343.49	8.94323
343.703	5.02889
343.917	7.34809
344.131	7.47647
344.344	5.253
344.558	5.27356
344.771	4.41102
344.985	7.58822
345.199	8.60147
345.412	6.65187
345.626	6.64725
345.839	3.73702
346.053	4.67336
346.266	4.69002
346.48	7.03325
346.693	6.62413
346.907	6.63199
347.12	4.76831
347.334	6.41401
347.547	6.76315
347.76	6.01195
347.974	7.80367
348.187	6.61708
348.401	5.90453
348.614	5.16393
348.827	5.83869
349.041	6.88365
349.254	3.85549
349.467	6.00948
349.681	5.05463
349.894	5.22669
350.107	7.97418
350.32	9.09148
350.534	4.34011
350.747	5.8541
350.96	5.09621
351.173	5.18627
351.386	5.59033
351.6	5.50368
351.813	5.65431
352.026	6.04706
352.239	4.83128
352.452	5.75616
352.665	8.03112
352.878	6.00877
353.092	9.30308
353.305	7.3367
353.518	6.43693
353.731	5.11441
353.944	7.65704
354.157	5.77455
354.37	5.56517
354.583	5.03686
354.796	4.61386
355.009	8.07716
355.222	6.67355
355.435	6.61659
355.647	8.03541
355.86	5.44415
356.073	6.47143
356.286	5.88056
356.499	7.74595
356.712	7.45522
356.925	7.12725
357.138	7.88364
357.35	5.34584
357.563	5.99203
357.776	6.81748
357.989	6.80854
358.201	7.29116
358.414	7.20138
358.627	8.13171
358.84	6.36415
359.052	5.16178
359.265	5.49296
359.478	7.91903
359.69	3.53322
359.903	8.01268
360.116	8.05405
360.328	4.84183
360.541	7.74767
360.753	6.0358
360.966	6.50446
361.179	6.69093
361.391	6.33292
361.604	5.8999
361.816	6.37627
362.029	6.35447
362.241	5.95158
362.454	6.52137
362.666	5.88721
362.879	7.47631
363.091	6.52555
363.304	6.11889
363.516	6.52925
363.728	5.366
363.941	7.5009
364.153	6.8218
364.366	4.41866
364.578	5.51195
364.79	7.46104
365.003	7.12618
365.215	6.28394
365.427	7.56857
365.639	8.34971
365.852	7.23865
366.064	9.01081
366.276	6.56717
366.488	7.50814
366.701	6.68893
366.913	6.72976
367.125	7.10753
367.337	6.16603
367.549	6.3625
367.762	7.03542
367.974	7.00165
368.186	6.65993
368.398	8.42001
368.61	7.73916
368.822	8.00599
369.034	7.08822
369.246	8.07364
369.458	10.38691
369.67	6.30418
369.882	9.44986
370.094	4.84178
370.306	9.01033
370.518	6.99742
370.73	7.0813
370.942	6.73473
371.154	7.2732
371.366	7.0409
371.578	8.19663
371.79	7.10706
372.002	8.83327
372.214	10.09255
372.425	7.60877
372.637	9.49083
372.849	8.18802
373.061	5.08632
373.273	8.35879
373.484	8.23027
373.696	8.77599
373.908	4.98252
374.12	9.11319
374.331	8.4175
374.543	6.79502
374.755	6.51739
374.967	7.7715
375.178	9.31353
375.39	7.40483
375.602	7.97968
375.813	6.28179
376.025	6.70132
376.236	8.05716
376.448	8.40339
376.66	7.96486
376.871	7.95898
377.083	9.08204
377.294	10.08527
377.506	7.90079
377.717	10.05076
377.929	8.53675
378.14	7.80351
378.352	8.83272
378.563	9.2528
378.775	9.99553
378.986	7.46292
379.197	8.68469
379.409	7.71207
379.62	9.36998
379.832	8.74742
380.043	8.40776
380.254	8.98465
380.466	7.12208
380.677	12.03714
380.888	11.24268
381.1	11.95679
381.311	11.9763
381.522	9.12487
381.733	12.31996
381.945	8.80847
382.156	8.74342
382.367	8.2611
382.578	12.38383
382.789	12.42222
383.001	8.1311
383.212	11.53099
383.423	11.32074
383.634	10.73746
383.845	10.19853
384.056	8.98583
384.267	9.33582
384.478	9.44385
384.69	8.32007
384.901	10.29889
385.112	9.90329
385.323	11.78378
385.534	10.06415
385.745	10.02306
385.956	10.16467
386.167	8.677
386.378	10.51678
386.588	8.76706
386.799	8.89498
387.01	8.16355
387.221	10.89091
387.432	10.06352
387.643	12.12598
387.854	9.64899
388.065	9.65427
388.275	9.80761
388.486	9.46536
388.697	10.25053
388.908	9.74426
389.119	11.52255
389.329	12.21397
389.54	10.5439
389.751	10.86581
389.962	11.81376
390.172	10.63618
390.383	10.24655
390.594	9.73555
390.804	10.13584
391.015	10.32055
391.226	11.06413
391.436	11.68916
391.647	11.29969
391.858	11.56756
392.068	9.16603
392.279	9.91314
392.489	11.49175
392.7	12.06844
392.91	10.17294
393.121	10.19544
393.331	11.5473
393.542	12.65738
393.752	11.64824
393.963	11.80635
394.173	11.79878
394.384	12.33495
394.594	11.60229
394.804	10.17325
395.015	11.68257
395.225	12.37195
395.436	10.31856
395.646	11.91694
395.856	11.07642
396.067	9.81565
396.277	12.69631
396.487	12.12689
396.697	11.95245
396.908	12.6376
397.118	12.42211
397.328	11.92724
397.538	12.89067
397.749	11.1826
397.959	13.17153
398.169	12.53717
398.379	10.56676
398.589	12.71399
398.8	12.35588
399.01	12.55793
399.22	11.76881
399.43	14.66534
399.64	12.10363
399.85	12.68908
400.06	12.60695
400.27	11.51067
400.48	12.09442
400.69	13.61939
400.9	11.75471
401.11	11.31419
401.32	13.34877
401.53	11.71729
401.74	14.2083
401.95	13.02847
402.16	11.98748
402.37	13.32708
402.58	12.24686
402.79	13.37044
403	13.93326
403.209	12.28727
403.419	14.14429
403.629	12.51374
403.839	14.10898
404.049	14.18864
404.258	12.68205
404.468	12.19633
404.678	14.03898
404.888	14.33862
405.097	12.71969
405.307	13.20103
405.517	13.90987
405.727	13.78212
405.936	12.98255
406.146	13.56738
406.356	14.79747
406.565	13.33148
406.775	12.94618
406.984	12.95047
407.194	15.42252
407.404	13.35156
407.613	13.828
407.823	14.17564
408.032	14.87462
408.242	14.44471
408.451	12.83002
408.661	13.41215
408.87	15.54508
409.08	12.89428
409.289	14.10588
409.499	14.27436
409.708	13.9424
409.918	11.85356
410.127	14.13739
410.336	15.62736
410.546	14.6794
410.755	13.67985
410.964	13.48976
411.174	12.96489
411.383	14.4917
411.592	14.23546
411.802	12.9573
412.011	14.95931
412.22	13.872
412.429	15.30455
412.639	15.58671
412.848	15.24096
413.057	15.96285
413.266	15.20591
413.475	14.25713
413.685	14.98392
413.894	15.38612
414.103	15.45664
414.312	15.23242
414.521	14.21557
414.73	14.64455
414.939	16.51248
415.148	15.19255
415.357	15.09243
415.566	14.5519
415.776	14.48678
415.985	14.3893
416.194	15.63189
416.403	16.74486
416.611	13.5518
416.82	14.42447
417.029	15.21382
417.238	14.51804
417.447	14.4437
417.656	14.92514
417.865	14.72816
418.074	15.06039
418.283	15.21051
418.492	16.35593
418.7	15.99151
418.909	16.89362
419.118	15.48906
419.327	15.71576
419.536	15.47588
419.744	15.06731
419.953	16.38207
420.162	16.43623
420.371	15.04925
420.579	14.78668
420.788	16.08484
420.997	15.96959
421.205	15.88355
421.414	15.54103
421.623	15.48455
421.831	15.01047
422.04	15.77272
422.249	14.91068
422.457	15.53464
422.666	14.9378
422.874	16.22444
423.083	16.28054
423.291	16.14806
423.5	15.86366
