Data from WindowProjectSample3_Transmission__12__00012.txt Node

Date: Sun May 04 09:52:53 EDT 2025
User: jessi
Spectrometer: SR400872
Trigger mode: 0
Integration Time (sec): 5.000070E-1
Scans to average: 10
Electric dark correction enabled: true
Nonlinearity correction enabled: true
Boxcar width: 0
XAxis mode: Wavelengths
Number of Pixels in Spectrum: 3648
>>>>>Begin Spectral Data<<<<<
184.909	-5644.78067
185.132	11379.12258
185.355	-8383.94366
185.578	-54036.10233
185.801	4681.93915
186.024	-132157.817
186.247	-761.37028
186.47	1369.06574
186.693	992.31899
186.916	-616.50277
187.139	-2540923.53144
187.362	-2941.69766
187.585	8814.82067
187.808	1845.70296
188.031	6.69384
188.254	4675.29429
188.476	-1751.39412
188.699	2486.45076
188.922	460.02248
189.145	-5979.82259
189.368	-3219.90925
189.591	1687.85503
189.813	-137156.71973
190.036	8951.33495
190.259	1448.39521
190.482	5513.8221
190.705	16826.39037
190.927	17458.1204
191.15	-4061.50076
191.373	2037.34749
191.595	1568.80012
191.818	17263.2677
192.041	853.61104
192.263	-7737.54847
192.486	-1726.38392
192.709	2840.75141
192.931	-3462.24128
193.154	13610.13982
193.377	2541.69654
193.599	28275.01761
193.822	2123.62146
194.044	2060.9918
194.267	995.71195
194.489	-7.72164
194.712	3766.64705
194.934	33387.31997
195.157	-551.85893
195.379	11038.16355
195.602	1859.62015
195.824	4818.24113
196.047	6183.58252
196.269	13390.42848
196.492	-11494.82105
196.714	3730.16147
196.936	6916.48848
197.159	10640.15938
197.381	4403.32009
197.604	1959577.76865
197.826	2032.92187
198.048	1966.56396
198.271	9753.20461
198.493	2054.16647
198.715	2804.29422
198.938	8194.87509
199.16	3571.31821
199.382	10031.31049
199.604	10031.51398
199.827	1863.31636
200.049	3195.91082
200.271	20875.66465
200.493	1798.01692
200.715	7405.89395
200.938	7914.18376
201.16	-3706.87823
201.382	33891.56717
201.604	3927.66839
201.826	8311.19764
202.048	4695.02088
202.27	1964.35857
202.492	5886.33041
202.715	19487.93569
202.937	3917.50785
203.159	1546.36958
203.381	2072.43493
203.603	2712.86134
203.825	-1353.09574
204.047	-22149.20945
204.269	3454.54122
204.491	7708.73425
204.713	-1699024.58067
204.935	2318.65467
205.156	3922.84683
205.378	1677.86795
205.6	36464.57126
205.822	4768.3647
206.044	3179.08806
206.266	6386.2817
206.488	1401.32136
206.71	9578.29846
206.932	1344.1704
207.153	29587.55505
207.375	16870.38752
207.597	12532.44488
207.819	38260.81504
208.041	-46191.97675
208.262	1227.62042
208.484	13698.79284
208.706	3676.00971
208.927	2483.6362
209.149	899.71446
209.371	3727.13526
209.593	941.12938
209.814	9336.99425
210.036	-444867.40812
210.258	1578.25136
210.479	2250.92423
210.701	3264.94977
210.922	-5501.84048
211.144	-3284.33579
211.366	5041.99041
211.587	2489.34511
211.809	5874.87183
212.03	-65361.01118
212.252	447.46246
212.473	805.50201
212.695	787.23767
212.916	1257.93249
213.138	555.5563
213.359	4915.32382
213.581	2700.92245
213.802	878.22112
214.024	7102.67658
214.245	-14166.33442
214.466	396.55227
214.688	3719.36627
214.909	9854.78715
215.131	4167.34714
215.352	2712.09279
215.573	12296.70508
215.795	2222.71836
216.016	2022.99612
216.237	-719299.18522
216.459	1870.6809
216.68	5712.08885
216.901	3132.03739
217.122	794.75364
217.344	3077.9493
217.565	7091.02641
217.786	3469.9841
218.007	894.71395
218.228	2112.44149
218.45	-16341.92345
218.671	42312.54168
218.892	20441.39635
219.113	1645.5571
219.334	8716.1651
219.555	-8452.82839
219.776	1791.46562
219.997	4091.74509
220.219	1102.10745
220.44	1512.03794
220.661	1688.12357
220.882	5641.18349
221.103	1543.52438
221.324	7533.51391
221.545	3145.29846
221.766	3040.6299
221.987	1574.3435
222.208	885.55747
222.429	2185.27122
222.65	230.78189
222.87	836.51009
223.091	1730.45513
223.312	1107.92024
223.533	2034.54289
223.754	1583.6
223.975	1714.1179
224.196	971.02574
224.417	5369.78563
224.637	629.48536
224.858	88.18605
225.079	1112.34253
225.3	609.00307
225.521	2317.0615
225.741	641.4774
225.962	617.06703
226.183	142.97889
226.404	984.76683
226.624	574.76028
226.845	613.61013
227.066	469.35596
227.286	319.18445
227.507	179.42213
227.728	162.25477
227.948	275.84049
228.169	94.29817
228.389	103.18971
228.61	58.1837
228.831	85.11172
229.051	9.5421
229.272	49.15871
229.492	72.13707
229.713	21.89811
229.933	53.65637
230.154	44.00396
230.374	78.25833
230.595	60.6147
230.815	31.77276
231.036	58.2667
231.256	-9.98738
231.477	98.60666
231.697	55.81329
231.917	63.16423
232.138	82.18681
232.358	158.4008
232.579	154.36348
232.799	21.95687
233.019	132.30306
233.24	159.03523
233.46	54.95505
233.68	96.91417
233.901	63.33393
234.121	38.9249
234.341	16.65476
234.561	0.1829
234.782	32.4931
235.002	99.78666
235.222	-1.42002
235.442	91.9419
235.662	44.15719
235.883	90.59334
236.103	75.1372
236.323	52.83045
236.543	41.92048
236.763	58.4963
236.983	59.49602
237.203	61.84386
237.423	87.50311
237.643	125.66107
237.864	110.1322
238.084	28.15382
238.304	37.51978
238.524	63.49641
238.744	56.44718
238.964	101.65303
239.184	88.5415
239.404	91.04705
239.624	51.2077
239.843	83.87491
240.063	48.98417
240.283	32.11743
240.503	38.01853
240.723	35.71313
240.943	19.92603
241.163	29.23167
241.383	19.89037
241.603	10.21178
241.822	13.4388
242.042	9.40448
242.262	11.70137
242.482	13.1959
242.702	15.3932
242.921	4.79935
243.141	10.98263
243.361	9.93037
243.581	13.69226
243.8	11.95541
244.02	7.43111
244.24	14.54932
244.459	15.12067
244.679	27.10192
244.899	18.55604
245.118	20.97161
245.338	17.99152
245.558	20.40346
245.777	12.07223
245.997	13.85791
246.216	15.05148
246.436	8.62025
246.655	5.75572
246.875	4.0157
247.094	8.58346
247.314	3.12662
247.533	5.27941
247.753	6.39323
247.972	5.4626
248.192	1.95864
248.411	3.10025
248.631	5.7708
248.85	7.27668
249.07	5.97421
249.289	9.78862
249.508	6.97555
249.728	11.22089
249.947	11.47746
250.166	13.27034
250.386	7.08328
250.605	10.30566
250.824	17.71132
251.044	11.92107
251.263	35.5902
251.482	19.86041
251.701	17.11165
251.921	-0.29552
252.14	5.45598
252.359	6.67373
252.578	14.81998
252.798	5.64349
253.017	14.28246
253.236	6.70252
253.455	9.82142
253.674	17.90831
253.893	8.46974
254.112	12.66906
254.331	18.62914
254.551	15.675
254.77	5.98777
254.989	21.20856
255.208	17.01555
255.427	22.95333
255.646	19.79722
255.865	31.26373
256.084	12.68349
256.303	15.7016
256.522	20.49319
256.741	4.49489
256.96	4.75019
257.179	12.00946
257.397	16.24556
257.616	8.17508
257.835	9.67223
258.054	22.37381
258.273	14.79876
258.492	15.52825
258.711	9.08783
258.93	4.37049
259.148	6.11874
259.367	6.43802
259.586	8.09538
259.805	3.4301
260.023	7.24066
260.242	5.41101
260.461	3.99632
260.68	2.50539
260.898	6.24104
261.117	2.2169
261.336	1.47187
261.554	5.63258
261.773	5.94622
261.992	1.36771
262.21	5.48619
262.429	6.67092
262.648	10.58307
262.866	12.1015
263.085	8.34352
263.303	7.69027
263.522	13.00161
263.74	13.40794
263.959	22.67027
264.178	12.10821
264.396	10.02104
264.615	7.23906
264.833	17.03031
265.051	14.84186
265.27	15.14951
265.488	16.40297
265.707	9.70186
265.925	15.38744
266.144	7.27499
266.362	8.64486
266.58	8.68314
266.799	7.11865
267.017	8.66413
267.235	7.6851
267.454	5.4039
267.672	2.88325
267.89	7.0135
268.109	7.21579
268.327	6.20158
268.545	1.41484
268.763	6.01287
268.982	2.75539
269.2	7.15961
269.418	4.56593
269.636	3.70791
269.854	6.76159
270.073	4.94247
270.291	3.15475
270.509	3.20946
270.727	6.57012
270.945	10.69632
271.163	11.1072
271.381	2.33082
271.599	4.57068
271.817	7.91149
272.036	2.3622
272.254	4.6336
272.472	3.43897
272.69	3.54481
272.908	4.03254
273.126	6.23719
273.344	7.7509
273.562	2.93177
273.779	4.1467
273.997	6.04765
274.215	6.6159
274.433	4.50195
274.651	7.18024
274.869	7.24184
275.087	4.50231
275.305	6.2885
275.523	3.99485
275.74	5.09794
275.958	8.05958
276.176	11.65603
276.394	3.78445
276.612	4.88476
276.829	5.04263
277.047	4.43673
277.265	4.8409
277.483	5.97337
277.7	6.54974
277.918	5.50625
278.136	9.59006
278.353	4.96949
278.571	3.03185
278.789	7.15983
279.006	1.79801
279.224	3.90931
279.442	7.60904
279.659	5.4841
279.877	3.66457
280.094	8.47494
280.312	1.74889
280.529	5.57203
280.747	1.84594
280.964	4.20452
281.182	8.56264
281.399	4.22172
281.617	5.70498
281.834	3.94688
282.052	3.09427
282.269	4.69519
282.487	3.68351
282.704	3.47845
282.921	3.61506
283.139	4.74835
283.356	6.3132
283.574	5.35211
283.791	3.13515
284.008	8.20661
284.226	4.58735
284.443	5.02083
284.66	6.1193
284.877	5.01397
285.095	3.28831
285.312	2.32232
285.529	1.51164
285.746	1.54694
285.964	3.21982
286.181	2.11166
286.398	3.04335
286.615	4.17514
286.832	3.98939
287.05	1.24459
287.267	2.88582
287.484	2.73642
287.701	4.31227
287.918	3.93349
288.135	4.1682
288.352	1.74895
288.569	2.29868
288.786	3.71379
289.003	2.90716
289.22	4.25593
289.437	2.48265
289.654	4.40729
289.871	4.54781
290.088	4.13582
290.305	3.44195
290.522	2.76178
290.739	3.0543
290.956	4.75867
291.173	5.43333
291.39	5.33417
291.607	3.74931
291.824	2.99277
292.04	1.71316
292.257	4.48705
292.474	4.83684
292.691	3.19568
292.908	1.54002
293.125	2.44243
293.341	1.72622
293.558	7.42038
293.775	3.03059
293.992	3.29139
294.208	1.26536
294.425	2.07815
294.642	2.91208
294.858	4.56947
295.075	1.21806
295.292	3.12555
295.508	3.58742
295.725	5.47674
295.942	2.60846
296.158	1.67907
296.375	3.14942
296.591	2.31082
296.808	2.41476
297.024	2.80869
297.241	3.23439
297.458	3.43246
297.674	0.30098
297.891	2.69907
298.107	2.22112
298.323	1.69216
298.54	4.13284
298.756	2.13173
298.973	0.94403
299.189	4.45062
299.406	1.81304
299.622	4.47503
299.838	4.16696
300.055	3.91998
300.271	1.02567
300.487	1.53581
300.704	1.79947
300.92	0.90677
301.136	5.64804
301.353	4.35516
301.569	3.05454
301.785	3.41777
302.001	4.11391
302.218	3.58391
302.434	3.48315
302.65	1.01976
302.866	2.31699
303.083	5.6147
303.299	5.55834
303.515	2.84357
303.731	2.97107
303.947	1.02573
304.163	1.90387
304.379	3.18047
304.595	3.69679
304.812	1.96528
305.028	1.93497
305.244	2.35764
305.46	3.99308
305.676	4.12195
305.892	4.8688
306.108	3.23526
306.324	2.42697
306.54	5.62262
306.756	3.80097
306.972	3.70119
307.187	2.35702
307.403	5.0376
307.619	2.25212
307.835	4.57729
308.051	4.85746
308.267	1.31867
308.483	4.27906
308.699	3.65026
308.914	3.12036
309.13	2.9094
309.346	0.80201
309.562	1.3746
309.778	1.0411
309.993	3.56061
310.209	2.48098
310.425	1.39737
310.641	2.43309
310.856	1.32315
311.072	1.42418
311.288	2.71945
311.503	2.91856
311.719	0.77625
311.935	0.50409
312.15	3.20472
312.366	2.74302
312.581	3.44468
312.797	2.76716
313.013	3.84812
313.228	2.11321
313.444	2.99402
313.659	1.93337
313.875	3.58519
314.09	2.84906
314.306	4.57478
314.521	3.96945
314.737	3.5545
314.952	3.40926
315.168	2.84762
315.383	3.49515
315.599	2.65908
315.814	2.5008
316.029	3.88354
316.245	1.08624
316.46	1.02253
316.675	4.98331
316.891	5.65227
317.106	6.94053
317.321	3.64657
317.537	3.6615
317.752	3.7407
317.967	4.00762
318.183	2.05161
318.398	2.82844
318.613	4.26601
318.828	4.83196
319.043	4.27643
319.259	2.45254
319.474	3.45422
319.689	4.42294
319.904	0.52051
320.119	4.0444
320.334	3.4713
320.549	2.74488
320.765	4.63804
320.98	3.13565
321.195	4.09738
321.41	2.87911
321.625	4.25092
321.84	5.68242
322.055	5.63221
322.27	2.04535
322.485	1.96646
322.7	3.37817
322.915	4.58635
323.13	1.87225
323.345	5.04307
323.56	3.96831
323.775	3.97816
323.989	3.65356
324.204	3.49074
324.419	4.24648
324.634	1.37666
324.849	2.86627
325.064	6.03184
325.279	4.13812
325.493	3.91087
325.708	4.4071
325.923	2.12783
326.138	2.06592
326.352	5.16926
326.567	4.40731
326.782	2.43903
326.997	1.96253
327.211	4.09908
327.426	3.68776
327.641	2.50948
327.855	0.9699
328.07	3.65542
328.285	5.37707
328.499	2.63353
328.714	3.81381
328.928	4.12946
329.143	3.06897
329.358	4.42692
329.572	4.8434
329.787	4.81106
330.001	6.49688
330.216	1.42723
330.43	5.27961
330.645	5.44004
330.859	4.29479
331.074	2.05868
331.288	3.55713
331.503	4.7941
331.717	1.75404
331.931	2.92705
332.146	3.229
332.36	5.78529
332.575	4.01936
332.789	3.474
333.003	3.05645
333.218	3.60276
333.432	2.23665
333.646	4.08057
333.86	4.99126
334.075	5.12967
334.289	2.31918
334.503	2.03101
334.717	3.69653
334.932	3.73202
335.146	4.92877
335.36	2.88297
335.574	4.27474
335.788	4.31929
336.003	5.13272
336.217	4.33276
336.431	4.16562
336.645	2.40891
336.859	1.65279
337.073	2.72741
337.287	3.25466
337.501	1.81378
337.715	3.17998
337.929	3.82049
338.143	1.60735
338.357	2.87337
338.571	1.7692
338.785	3.53108
338.999	2.55169
339.213	2.39246
339.427	1.47516
339.641	4.80373
339.855	2.73955
340.069	2.46628
340.283	4.71309
340.497	5.58201
340.711	3.60747
340.924	2.58247
341.138	1.62738
341.352	1.07838
341.566	3.24885
341.78	1.00365
341.993	2.29797
342.207	1.65415
342.421	3.36008
342.635	2.8053
342.848	2.2603
343.062	0.45332
343.276	2.36282
343.49	5.78289
343.703	2.18985
343.917	3.9165
344.131	3.83227
344.344	2.01617
344.558	2.30724
344.771	1.83912
344.985	4.61321
345.199	4.9224
345.412	3.36166
345.626	3.30634
345.839	0.91609
346.053	1.45061
346.266	1.6898
346.48	3.9725
346.693	3.23774
346.907	3.68264
347.12	1.87493
347.334	3.28174
347.547	3.26298
347.76	2.54661
347.974	4.35671
348.187	3.28375
348.401	2.32308
348.614	2.08421
348.827	2.48854
349.041	3.67464
349.254	0.88747
349.467	2.72023
349.681	1.37401
349.894	2.21879
350.107	4.25542
350.32	4.76187
350.534	0.91754
350.747	2.48303
350.96	1.82826
351.173	2.00376
351.386	2.27161
351.6	2.48796
351.813	1.92705
352.026	2.95083
352.239	1.12781
352.452	2.47543
352.665	3.70945
352.878	2.46019
353.092	5.26527
353.305	3.51228
353.518	2.82109
353.731	1.74533
353.944	3.91143
354.157	1.99976
354.37	1.63461
354.583	1.38253
354.796	0.84453
355.009	4.19094
355.222	2.69708
355.435	2.78414
355.647	3.78246
355.86	1.51996
356.073	2.59921
356.286	1.98053
356.499	3.44176
356.712	2.91059
356.925	3.15855
357.138	3.56622
357.35	1.54269
357.563	2.0842
357.776	2.71895
357.989	2.11565
358.201	3.12475
358.414	2.68408
358.627	3.8481
358.84	2.27296
359.052	1.26877
359.265	1.29149
359.478	3.7308
359.69	-0.36495
359.903	3.15489
360.116	3.33335
360.328	0.59158
360.541	3.21514
360.753	1.28933
360.966	1.63398
361.179	1.76571
361.391	1.68549
361.604	1.13974
361.816	1.72982
362.029	1.42229
362.241	1.25698
362.454	1.48192
362.666	1.26912
362.879	2.33133
363.091	2.03022
363.304	1.41294
363.516	2.44518
363.728	0.87485
363.941	2.89994
364.153	1.59756
364.366	-0.08581
364.578	1.00283
364.79	2.81885
365.003	2.11931
365.215	1.87066
365.427	2.48179
365.639	3.6905
365.852	2.57647
366.064	4.46393
366.276	1.69534
366.488	2.87971
366.701	1.85732
366.913	2.03649
367.125	2.0597
367.337	1.65378
367.549	1.77575
367.762	2.34779
367.974	2.42027
368.186	1.40625
368.398	3.45046
368.61	2.9653
368.822	3.05014
369.034	2.31821
369.246	3.04799
369.458	4.96817
369.67	1.34464
369.882	4.41037
370.094	0.14999
370.306	4.12246
370.518	1.78273
370.73	1.61856
370.942	1.31838
371.154	1.84834
371.366	1.50921
371.578	2.49232
371.79	1.17145
372.002	3.54581
372.214	4.03993
372.425	2.70135
372.637	3.67807
372.849	2.63232
373.061	0.14326
373.273	2.61693
373.484	2.69279
373.696	3.10113
373.908	-0.13072
374.12	3.35748
374.331	2.62722
374.543	1.46932
374.755	1.03019
374.967	2.34189
375.178	3.06831
375.39	1.89505
375.602	2.33053
375.813	0.8597
376.025	0.95324
376.236	2.07414
376.448	2.35025
376.66	1.47311
376.871	1.56501
377.083	3.26379
377.294	3.16781
377.506	1.51513
377.717	3.50365
377.929	2.34489
378.14	1.06876
378.352	2.81203
378.563	2.29787
378.775	3.3473
378.986	1.44832
379.197	2.35699
379.409	1.42931
379.62	3.1101
379.832	2.41509
380.043	1.60868
380.254	2.23978
380.466	0.79593
380.677	5.01614
380.888	4.71709
381.1	4.88053
381.311	4.6639
381.522	2.00558
381.733	5.26609
381.945	1.67849
382.156	2.47468
382.367	1.72736
382.578	5.10223
382.789	5.13055
383.001	1.73841
383.212	3.38729
383.423	3.59172
383.634	3.52178
383.845	2.51993
384.056	1.65507
384.267	2.00841
384.478	1.83066
384.69	0.88305
384.901	2.69468
385.112	2.23384
385.323	3.67984
385.534	2.57449
385.745	2.28472
385.956	2.55269
386.167	0.96141
386.378	2.49196
386.588	0.76022
386.799	1.3515
387.01	0.23813
387.221	2.81529
387.432	1.75698
387.643	4.1283
387.854	1.78164
388.065	1.71161
388.275	1.8191
388.486	1.80136
388.697	2.02538
388.908	1.89892
389.119	3.30498
389.329	3.86807
389.54	2.26758
389.751	2.44091
389.962	3.22005
390.172	2.3762
390.383	1.57897
390.594	1.2442
390.804	1.25674
391.015	1.38569
391.226	2.07518
391.436	2.46904
391.647	2.35675
391.858	2.73038
392.068	0.3532
392.279	0.78332
392.489	1.98247
392.7	3.02954
392.91	0.70397
393.121	1.22912
393.331	2.49448
393.542	3.11925
393.752	2.48932
393.963	2.06089
394.173	1.86312
394.384	2.53008
394.594	1.79561
394.804	0.66676
395.015	2.28707
395.225	2.49599
395.436	0.77572
395.646	2.5511
395.856	1.11485
396.067	0.52279
396.277	3.05369
396.487	2.38627
396.697	1.9852
396.908	2.79151
397.118	2.6319
397.328	2.20691
397.538	2.92581
397.749	1.17623
397.959	2.88652
398.169	2.83064
398.379	0.67846
398.589	2.89316
398.8	2.13434
399.01	1.67489
399.22	1.82131
399.43	4.23283
399.64	1.56179
399.85	2.60906
400.06	1.74913
400.27	1.39688
400.48	2.0587
400.69	3.59947
400.9	1.52977
401.11	1.15865
401.32	3.05671
401.53	1.3822
401.74	3.78586
401.95	2.87104
402.16	1.1098
402.37	2.27636
402.58	1.39996
402.79	2.63715
403	2.90203
403.209	1.39916
403.419	2.67805
403.629	1.33429
403.839	2.54678
404.049	2.79843
404.258	1.1687
404.468	0.99266
404.678	2.40254
404.888	2.54871
405.097	0.95246
405.307	1.88096
405.517	2.38765
405.727	2.15507
405.936	1.60813
406.146	2.20255
406.356	3.18197
406.565	1.86988
406.775	1.33884
406.984	1.43244
407.194	3.60156
407.404	1.98332
407.613	2.28725
407.823	2.80182
408.032	3.23878
408.242	3.23421
408.451	1.58903
408.661	1.87993
408.87	3.79722
409.08	1.46836
409.289	2.50422
409.499	2.06681
409.708	2.13208
409.918	0.0453
410.127	1.96137
410.336	3.46815
410.546	2.64669
410.755	1.53697
410.964	1.64176
411.174	1.32064
411.383	2.43561
411.592	2.49921
411.802	1.02728
412.011	3.07295
412.22	2.19768
412.429	3.61673
412.639	3.46483
412.848	3.46783
413.057	3.68942
413.266	3.38348
413.475	1.95815
413.685	2.83464
413.894	2.91009
414.103	3.2365
414.312	2.71388
414.521	2.07792
414.73	2.19291
414.939	4.10741
415.148	2.58866
415.357	2.36306
415.566	1.55122
415.776	1.69367
415.985	1.47051
416.194	2.81493
416.403	3.44081
416.611	0.73822
416.82	1.21141
417.029	1.97765
417.238	1.16621
417.447	0.93822
417.656	1.25159
417.865	0.98031
418.074	1.26207
418.283	1.46657
418.492	2.15447
418.7	2.04281
418.909	2.66252
419.118	1.55534
419.327	1.7428
419.536	1.5699
419.744	0.91555
419.953	2.06718
420.162	2.02692
420.371	0.77763
420.579	0.6903
420.788	1.82298
420.997	1.76752
421.205	1.80745
421.414	1.46758
421.623	1.34738
421.831	0.89313
422.04	1.84474
422.249	0.88209
422.457	1.64311
422.666	0.94803
422.874	2.11864
423.083	2.02482
423.291	1.90057
423.5	1.47794
423.708	1.68386
423.917	2.08936
424.125	1.57538
424.334	1.13582
424.542	3.25765
424.751	2.30864
424.959	2.15676
425.167	2.52141
425.376	2.31866
425.584	1.62943
425.793	2.00308
426.001	1.07919
426.209	2.45502
426.418	1.24586
426.626	1.55595
426.834	1.20793
427.042	2.01183
