Data from WindowProjectSample_Transmission__41__00041__07577212334549736.txt Node

Date: Mon May 05 17:54:58 EDT 2025
User: jessi
Spectrometer: SR400872
Trigger mode: 0
Integration Time (sec): 5.000010E-1
Scans to average: 20
Electric dark correction enabled: true
Nonlinearity correction enabled: true
Boxcar width: 0
XAxis mode: Wavelengths
Number of Pixels in Spectrum: 3648
>>>>>Begin Spectral Data<<<<<
184.909	22260.10014
185.132	-5381.74923
185.355	-3145.52875
185.578	-18916.22482
185.801	2101.93388
186.024	10743.01548
186.247	-1968.00007
186.47	1038.36067
186.693	325.85037
186.916	377.19374
187.139	-3993.16703
187.362	3691.18757
187.585	4276.2455
187.808	3651.01871
188.031	-39.81126
188.254	-55181.40204
188.476	-715.04319
188.699	6484.36531
188.922	630.39764
189.145	-16240.99474
189.368	-603.79472
189.591	-1375.12831
189.813	3128.31986
190.036	-52211.97668
190.259	-915.69344
190.482	-4833.49808
190.705	7389.927
190.927	-2495.35915
191.15	13382.36041
191.373	3414.65667
191.595	-9401.25554
191.818	-4386.3885
192.041	-5652.15787
192.263	-3509.02001
192.486	-778.40803
192.709	-4061.26566
192.931	8124.31724
193.154	-29848.50931
193.377	-2945.59175
193.599	-2606.63846
193.822	-9510.06689
194.044	-2024.96817
194.267	1138.39659
194.489	254.91602
194.712	-43667.02193
194.934	-33028.02987
195.157	1177.42955
195.379	1547.51349
195.602	-7051.40233
195.824	-1387.73888
196.047	-8903.00892
196.269	2846.401
196.492	-6414.01942
196.714	29554.79335
196.936	-9125.81159
197.159	-1290.035
197.381	1145.95284
197.604	452.55263
197.826	12616.46011
198.048	-10680.32792
198.271	-2901.64257
198.493	7899.41776
198.715	2490.44793
198.938	-503.30142
199.16	7701.01905
199.382	-106392.50973
199.604	2598.45907
199.827	-1051.25754
200.049	-3176.09043
200.271	14519.05368
200.493	1241.36854
200.715	-39547.31601
200.938	-6204.62156
201.16	-4271.82213
201.382	21680.16571
201.604	2389.33079
201.826	2317.48996
202.048	-1986.45645
202.27	-2080.96098
202.492	-36868.9897
202.715	3080.21325
202.937	-4621.82948
203.159	-6567.55629
203.381	1514.08345
203.603	7130.02884
203.825	6714.81517
204.047	2421.71598
204.269	-2937.71299
204.491	2196.57177
204.713	6165.10097
204.935	-516043.09585
205.156	1249.6325
205.378	-3119.58015
205.6	1644.01887
205.822	159952.07538
206.044	-992.03103
206.266	1548.90139
206.488	4638.04753
206.71	-5435.92094
206.932	1105.47743
207.153	12662.23615
207.375	-7417.74214
207.597	-38548.36468
207.819	-2868.51376
208.041	2519.14299
208.262	466.06793
208.484	783.16368
208.706	-822.51694
208.927	-811.78619
209.149	608.93917
209.371	-3007.70943
209.593	-301.5203
209.814	-896.0341
210.036	578.80864
210.258	-688.20502
210.479	1689.64701
210.701	1777.72105
210.922	3380.62233
211.144	-4079.0869
211.366	2142.48217
211.587	7465.81966
211.809	-8703.1876
212.03	2511.67938
212.252	419.04073
212.473	2118.9292
212.695	-5486.12809
212.916	3023.65566
213.138	-619.3943
213.359	4005.29681
213.581	5472.51112
213.802	-825.25478
214.024	1205.38788
214.245	2187.51719
214.466	3871.67653
214.688	-3213.79245
214.909	-1330.95853
215.131	-1841.79334
215.352	-3078.28534
215.573	15685.27993
215.795	5140.3323
216.016	5705.53587
216.237	867.41052
216.459	3721.73598
216.68	1884.27649
216.901	5165.93852
217.122	-3546.32069
217.344	-11900.46905
217.565	3641.39672
217.786	9255.74301
218.007	16023.09418
218.228	-757.80287
218.45	6047.63281
218.671	817.3985
218.892	38720.45545
219.113	1564.66329
219.334	-386.7794
219.555	10558.17673
219.776	3147.51457
219.997	23819.0728
220.219	2768.51498
220.44	-11408.18314
220.661	439.03407
220.882	1544.63924
221.103	-1207.43855
221.324	2445.52002
221.545	2471.08664
221.766	-9280.52702
221.987	944.7881
222.208	1795.84007
222.429	4420.63809
222.65	318.12638
222.87	18691.76089
223.091	736.0688
223.312	578.39776
223.533	1416.92737
223.754	1549.23664
223.975	1409.19727
224.196	2128.66603
224.417	1473.82003
224.637	674.58554
224.858	92.73262
225.079	1145.13523
225.3	691.50946
225.521	3820.52932
225.741	476.55451
225.962	553.3878
226.183	158.53204
226.404	684.90716
226.624	448.94169
226.845	681.89216
227.066	423.14698
227.286	251.79291
227.507	124.08575
227.728	124.82315
227.948	244.30764
228.169	73.85971
228.389	84.30431
228.61	49.33181
228.831	63.52027
229.051	3.61165
229.272	39.65259
229.492	58.54268
229.713	15.49687
229.933	39.42534
230.154	31.5506
230.374	57.38065
230.595	38.36058
230.815	24.61977
231.036	41.71432
231.256	-12.72656
231.477	69.79346
231.697	39.45815
231.917	39.41881
232.138	60.98619
232.358	109.50261
232.579	107.70243
232.799	18.26673
233.019	99.94217
233.24	119.01758
233.46	40.40832
233.68	66.02708
233.901	43.28384
234.121	26.80798
234.341	13.19925
234.561	-3.62256
234.782	23.47254
235.002	68.80866
235.222	-3.0468
235.442	66.96735
235.662	33.01303
235.883	64.84158
236.103	52.37906
236.323	33.50584
236.543	29.9518
236.763	40.68498
236.983	46.18414
237.203	42.3216
237.423	63.64118
237.643	90.41183
237.864	76.43523
238.084	18.55899
238.304	26.4141
238.524	45.14686
238.744	42.45922
238.964	76.66563
239.184	64.41655
239.404	65.52382
239.624	35.93284
239.843	61.46704
240.063	37.67932
240.283	22.8011
240.503	26.24495
240.723	26.38507
240.943	14.94769
241.163	19.76712
241.383	14.08968
241.603	7.48362
241.822	9.46897
242.042	6.40393
242.262	8.55955
242.482	9.90594
242.702	11.10687
242.921	2.96822
243.141	7.24955
243.361	6.39789
243.581	9.70447
243.8	7.82954
244.02	5.01505
244.24	9.8253
244.459	9.64267
244.679	18.74529
244.899	11.47004
245.118	14.36298
245.338	11.77622
245.558	13.92003
245.777	9.08281
245.997	10.82205
246.216	11.08223
246.436	6.34067
246.655	4.69384
246.875	3.2943
247.094	6.50842
247.314	2.21586
247.533	3.8596
247.753	4.43177
247.972	3.70493
248.192	1.08843
248.411	1.94865
248.631	3.68861
248.85	4.76888
249.07	4.13117
249.289	6.16546
249.508	5.22215
249.728	7.79293
249.947	7.36614
250.166	9.18278
250.386	4.4952
250.605	7.02101
250.824	11.38631
251.044	7.72809
251.263	29.38462
251.482	15.59308
251.701	11.80775
251.921	-0.37797
252.14	3.57614
252.359	4.22669
252.578	10.85683
252.798	3.21064
253.017	9.43465
253.236	4.35743
253.455	5.83653
253.674	10.64711
253.893	4.59763
254.112	7.82112
254.331	11.69678
254.551	8.64806
254.77	3.62245
254.989	13.13823
255.208	9.74688
255.427	15.39314
255.646	12.47125
255.865	22.39343
256.084	9.16088
256.303	10.53668
256.522	14.16376
256.741	2.55972
256.96	3.28532
257.179	7.50481
257.397	11.26034
257.616	5.70233
257.835	6.25718
258.054	16.0661
258.273	10.67231
258.492	11.49088
258.711	6.97455
258.93	2.76102
259.148	4.92011
259.367	4.74259
259.586	5.76248
259.805	2.25375
260.023	5.47267
260.242	4.15617
260.461	2.87184
260.68	1.36001
260.898	4.6187
261.117	1.40548
261.336	1.04404
261.554	3.32664
261.773	3.61759
261.992	0.83692
262.21	3.42015
262.429	3.64932
262.648	7.58237
262.866	8.33498
263.085	5.97376
263.303	4.98093
263.522	9.06764
263.74	9.25684
263.959	15.58206
264.178	7.70351
264.396	7.01581
264.615	4.78927
264.833	11.19225
265.051	9.40474
265.27	11.04076
265.488	11.6048
265.707	6.32079
265.925	11.24405
266.144	4.65295
266.362	6.01125
266.58	6.14827
266.799	5.27693
267.017	6.28662
267.235	5.37131
267.454	3.45951
267.672	1.77311
267.89	4.44106
268.109	4.5497
268.327	4.49215
268.545	1.1207
268.763	4.48064
268.982	1.62059
269.2	4.43083
269.418	3.13138
269.636	1.97307
269.854	4.91245
270.073	3.20074
270.291	2.15001
270.509	1.67863
270.727	4.51594
270.945	7.76771
271.163	7.44428
271.381	1.27884
271.599	3.20917
271.817	5.70667
272.036	1.77047
272.254	3.33518
272.472	2.63367
272.69	2.64368
272.908	2.34352
273.126	4.61263
273.344	5.42308
273.562	1.79639
273.779	2.48861
273.997	4.0886
274.215	4.24879
274.433	2.8613
274.651	4.60964
274.869	4.85001
275.087	2.92568
275.305	4.17156
275.523	2.70643
275.74	3.04256
275.958	5.52601
276.176	8.44946
276.394	2.44797
276.612	3.32717
276.829	3.11872
277.047	2.75097
277.265	3.02901
277.483	3.569
277.7	4.41964
277.918	3.44834
278.136	6.53377
278.353	2.99773
278.571	2.15671
278.789	4.45339
279.006	0.92247
279.224	3.04455
279.442	5.42803
279.659	3.68093
279.877	2.50034
280.094	5.8027
280.312	1.07185
280.529	3.28968
280.747	1.0699
280.964	2.82338
281.182	6.27618
281.399	2.85211
281.617	4.00223
281.834	2.69839
282.052	2.03787
282.269	3.29597
282.487	2.51936
282.704	2.12736
282.921	2.22823
283.139	3.3617
283.356	4.32975
283.574	4.03859
283.791	1.95015
284.008	5.89717
284.226	3.00344
284.443	3.3668
284.66	4.58237
284.877	3.54554
285.095	2.23169
285.312	1.70005
285.529	0.93778
285.746	0.95801
285.964	2.1841
286.181	1.44731
286.398	1.94278
286.615	2.74356
286.832	2.66026
287.05	0.55339
287.267	1.91188
287.484	1.84384
287.701	2.66578
287.918	2.66049
288.135	2.62806
288.352	1.26091
288.569	1.35899
288.786	2.43989
289.003	2.01263
289.22	3.08854
289.437	1.68036
289.654	2.95308
289.871	3.10811
290.088	3.02523
290.305	2.48024
290.522	1.76427
290.739	2.11395
290.956	3.20635
291.173	3.52447
291.39	3.56242
291.607	2.38715
291.824	1.5927
292.04	1.31482
292.257	2.94453
292.474	3.45555
292.691	2.08132
292.908	0.95376
293.125	1.79805
293.341	1.16372
293.558	5.1301
293.775	2.02125
293.992	2.0064
294.208	0.95597
294.425	1.27996
294.642	1.94523
294.858	3.36844
295.075	0.63983
295.292	2.02611
295.508	2.34188
295.725	4.22152
295.942	1.67687
296.158	1.22813
296.375	2.08852
296.591	1.60305
296.808	1.77906
297.024	1.96528
297.241	2.29381
297.458	2.43145
297.674	0.21715
297.891	1.92003
298.107	1.4784
298.323	1.08708
298.54	3.09614
298.756	1.29016
298.973	0.65287
299.189	3.13845
299.406	1.16044
299.622	2.84805
299.838	2.77985
300.055	2.64721
300.271	0.59935
300.487	1.04181
300.704	1.32101
300.92	0.67491
301.136	4.285
301.353	2.60213
301.569	1.95854
301.785	2.24741
302.001	2.75025
302.218	2.30419
302.434	2.30668
302.65	0.73107
302.866	1.61715
303.083	4.10026
303.299	3.7858
303.515	1.9781
303.731	2.13151
303.947	0.60982
304.163	1.22742
304.379	2.14028
304.595	2.46673
304.812	1.28916
305.028	1.33571
305.244	1.84524
305.46	2.70821
305.676	2.75453
305.892	3.24973
306.108	2.30946
306.324	1.52016
306.54	3.69182
306.756	2.57781
306.972	2.49577
307.187	1.76516
307.403	3.38596
307.619	1.54543
307.835	3.1416
308.051	3.51945
308.267	0.97917
308.483	2.92087
308.699	2.43761
308.914	2.05617
309.13	1.86007
309.346	0.53621
309.562	0.92491
309.778	0.64868
309.993	2.51031
310.209	1.93083
310.425	0.90051
310.641	1.69525
310.856	0.94762
311.072	0.89972
311.288	1.79564
311.503	2.01949
311.719	0.37562
311.935	0.1861
312.15	2.22674
312.366	1.85097
312.581	2.28325
312.797	1.78365
313.013	2.61887
313.228	1.2684
313.444	1.87175
313.659	1.36932
313.875	2.29902
314.09	1.70091
314.306	3.39209
314.521	2.69347
314.737	2.56974
314.952	1.91159
315.168	1.7972
315.383	2.34982
315.599	1.73049
315.814	1.55447
316.029	2.59283
316.245	0.78373
316.46	0.53184
316.675	3.12823
316.891	3.61954
317.106	4.67958
317.321	2.38087
317.537	2.55261
317.752	2.74896
317.967	2.88977
318.183	1.21351
318.398	1.6114
318.613	2.73193
318.828	3.14428
319.043	2.8145
319.259	1.78655
319.474	2.21256
319.689	3.15951
319.904	0.53398
320.119	2.70902
320.334	2.37715
320.549	1.82596
320.765	2.93284
320.98	2.2172
321.195	2.73052
321.41	1.9229
321.625	2.67552
321.84	3.724
322.055	3.64933
322.27	1.42727
322.485	1.00881
322.7	2.30521
322.915	2.95849
323.13	1.26927
323.345	3.40903
323.56	2.9869
323.775	2.5009
323.989	2.37225
324.204	2.26174
324.419	3.01278
324.634	0.9631
324.849	1.75478
325.064	4.99165
325.279	2.89254
325.493	2.44525
325.708	2.99037
325.923	1.28732
326.138	1.30807
326.352	3.55072
326.567	3.06601
326.782	1.72836
326.997	1.34939
327.211	2.49404
327.426	2.36938
327.641	1.72073
327.855	0.64312
328.07	2.33145
328.285	3.52286
328.499	1.50491
328.714	2.23002
328.928	2.73077
329.143	1.86014
329.358	2.92576
329.572	2.97694
329.787	3.18194
330.001	4.3607
330.216	0.88476
330.43	3.73373
330.645	3.61899
330.859	2.87682
331.074	1.45518
331.288	2.21878
331.503	3.26572
331.717	1.01768
331.931	2.24344
332.146	2.09038
332.36	3.73216
332.575	2.45175
332.789	2.37328
333.003	2.11915
333.218	2.44912
333.432	1.47647
333.646	2.89138
333.86	3.67551
334.075	3.48263
334.289	1.49766
334.503	1.24761
334.717	2.38969
334.932	2.4346
335.146	3.10679
335.36	1.80502
335.574	2.55005
335.788	2.4935
336.003	3.16673
336.217	2.58319
336.431	2.59201
336.645	1.50083
336.859	1.04487
337.073	1.83628
337.287	2.30672
337.501	1.0951
337.715	2.25945
337.929	2.91599
338.143	1.08757
338.357	1.96871
338.571	1.22408
338.785	2.4213
338.999	1.67223
339.213	1.49213
339.427	0.67182
339.641	3.24882
339.855	1.81704
340.069	1.61096
340.283	2.8937
340.497	3.66213
340.711	2.24921
340.924	1.81792
341.138	1.09073
341.352	0.89639
341.566	2.24976
341.78	0.61038
341.993	1.59977
342.207	1.11841
342.421	2.27093
342.635	1.79516
342.848	1.63949
343.062	0.26664
343.276	1.29647
343.49	3.70582
343.703	1.45543
343.917	2.827
344.131	2.89039
344.344	1.35892
344.558	1.64063
344.771	1.02476
344.985	3.44381
345.199	3.30028
345.412	2.18988
345.626	2.19724
345.839	0.55459
346.053	0.99276
346.266	1.06344
346.48	2.53636
346.693	2.23584
346.907	2.26041
347.12	1.21097
347.334	2.31309
347.547	2.33609
347.76	1.76962
347.974	2.86124
348.187	2.2613
348.401	1.6226
348.614	1.33361
348.827	1.63452
349.041	2.38401
349.254	0.42699
349.467	1.70335
349.681	0.87966
349.894	1.38424
350.107	2.92805
350.32	3.33661
350.534	0.64438
350.747	1.5277
350.96	1.07527
351.173	1.25808
351.386	1.56558
351.6	1.47765
351.813	1.32943
352.026	1.73334
352.239	0.66473
352.452	1.63234
352.665	2.62034
352.878	1.80686
353.092	3.50395
353.305	2.34742
353.518	2.04923
353.731	1.18199
353.944	2.86988
354.157	1.42607
354.37	1.15249
354.583	0.9476
354.796	0.45368
355.009	2.68621
355.222	2.02165
355.435	1.82676
355.647	2.54827
355.86	1.00594
356.073	1.80898
356.286	1.33613
356.499	2.42932
356.712	1.96052
356.925	2.24662
357.138	2.35214
357.35	0.97717
357.563	1.50138
357.776	1.76464
357.989	1.4203
358.201	2.04833
358.414	1.76147
358.627	2.74237
358.84	1.50097
359.052	0.76299
359.265	0.96893
359.478	2.58201
359.69	-0.2808
359.903	2.1566
360.116	2.43753
360.328	0.40853
360.541	2.27556
360.753	0.83955
360.966	1.24926
361.179	1.25316
361.391	1.16431
361.604	0.87698
361.816	1.22633
362.029	1.04386
362.241	0.87115
362.454	1.11017
362.666	0.82535
362.879	1.60259
363.091	1.24478
363.304	0.9306
363.516	1.46681
363.728	0.77396
363.941	1.94482
364.153	1.22831
364.366	0.07898
364.578	0.72453
364.79	1.7814
365.003	1.50875
365.215	1.07265
365.427	1.91236
365.639	2.27855
365.852	1.58771
366.064	3.32841
366.276	1.22634
366.488	1.85616
366.701	1.15655
366.913	1.44905
367.125	1.33026
367.337	0.99974
367.549	1.18351
367.762	1.63905
367.974	1.57756
368.186	0.95826
368.398	2.27725
368.61	2.04131
368.822	2.11321
369.034	1.56926
369.246	2.11341
369.458	3.75468
369.67	0.85281
369.882	2.95844
370.094	0.25847
370.306	2.89849
370.518	1.36267
370.73	1.1257
370.942	1.08394
371.154	1.41787
371.366	1.15311
371.578	1.76834
371.79	1.00155
372.002	2.43497
372.214	2.95807
372.425	1.63192
372.637	2.45142
372.849	1.80801
373.061	0.17351
373.273	1.8392
373.484	1.83344
373.696	2.16925
373.908	0.08598
374.12	2.55292
374.331	1.83362
374.543	1.06642
374.755	0.87805
374.967	1.74044
375.178	2.09526
375.39	1.33405
375.602	1.62795
375.813	0.57759
376.025	0.78418
376.236	1.70509
376.448	1.79079
376.66	1.22367
376.871	1.15172
377.083	2.41722
377.294	2.58096
377.506	1.17494
377.717	2.51819
377.929	1.74905
378.14	1.06717
378.352	1.88524
378.563	1.7812
378.775	2.50805
378.986	0.93547
379.197	1.77663
379.409	1.17146
379.62	2.12388
379.832	1.96607
380.043	1.386
380.254	1.63208
380.466	0.88321
380.677	3.69424
380.888	3.09567
381.1	3.32393
381.311	3.36648
381.522	1.62249
381.733	3.77186
381.945	1.53417
382.156	1.78444
382.367	1.24535
382.578	3.66406
382.789	3.49733
383.001	1.31416
383.212	2.63841
383.423	2.86134
383.634	2.4839
383.845	2.083
384.056	1.44917
384.267	1.74406
384.478	1.5828
384.69	0.91326
384.901	1.9848
385.112	1.80064
385.323	2.7785
385.534	2.0871
385.745	1.81874
385.956	1.98001
386.167	0.98875
386.378	2.02877
386.588	1.01202
386.799	1.22888
387.01	0.6042
387.221	2.29615
387.432	1.52074
387.643	3.09554
387.854	1.55166
388.065	1.49979
388.275	1.54975
388.486	1.40524
388.697	1.52885
388.908	1.42091
389.119	2.49913
389.329	2.86063
389.54	1.80055
389.751	1.99799
389.962	2.57546
390.172	1.91915
390.383	1.39325
390.594	1.43027
390.804	1.2997
391.015	1.32649
391.226	1.78832
391.436	2.02804
391.647	1.93274
391.858	2.22133
392.068	0.64745
392.279	0.97153
392.489	1.76305
392.7	2.56865
392.91	1.09223
393.121	1.25516
393.331	2.05716
393.542	2.54643
393.752	1.92406
393.963	1.9654
394.173	1.86531
394.384	2.12508
394.594	1.7858
394.804	1.0866
395.015	1.8059
395.225	2.13697
395.436	1.08627
395.646	2.1044
395.856	1.3252
396.067	0.86578
396.277	2.47479
396.487	2.18688
396.697	1.90674
396.908	2.09308
397.118	2.20449
397.328	2.04337
397.538	2.53072
397.749	1.28061
397.959	2.35722
398.169	2.36363
398.379	0.98824
398.589	2.36368
398.8	1.90526
399.01	1.79256
399.22	1.72046
399.43	3.49234
399.64	1.72644
399.85	2.3732
400.06	1.8571
400.27	1.3918
400.48	1.9487
400.69	3.02801
400.9	1.59155
401.11	1.35172
401.32	2.5648
401.53	1.68287
401.74	3.02822
401.95	2.45284
402.16	1.32827
402.37	2.17653
402.58	1.54978
402.79	2.48863
403	2.67498
403.209	1.66237
403.419	2.58853
403.629	1.48532
403.839	2.54048
404.049	2.30865
404.258	1.55033
404.468	1.46498
404.678	2.16835
404.888	2.49496
405.097	1.40785
405.307	1.89935
405.517	2.29322
405.727	2.20979
405.936	1.78567
406.146	2.12956
406.356	2.87808
406.565	1.95886
406.775	1.62905
406.984	1.69768
407.194	3.18419
407.404	2.06517
407.613	2.39401
407.823	2.59419
408.032	2.77177
408.242	2.78774
408.451	1.71502
408.661	2.07123
408.87	3.2176
409.08	1.68338
409.289	2.33244
409.499	2.2878
409.708	2.23626
409.918	0.98607
410.127	2.23261
410.336	3.15031
410.546	2.5601
410.755	1.87412
410.964	1.93445
411.174	1.69557
411.383	2.47444
411.592	2.51551
411.802	1.49889
412.011	2.78723
412.22	2.07549
412.429	3.3124
412.639	3.12847
412.848	2.96463
413.057	3.06024
413.266	3.09613
413.475	2.34853
413.685	2.70668
413.894	2.88846
414.103	3.06613
414.312	2.79832
414.521	2.22047
414.73	2.33099
414.939	3.7588
415.148	2.68959
415.357	2.48456
415.566	2.1373
415.776	2.24745
415.985	1.99257
416.194	2.90132
416.403	3.36699
416.611	1.6131
416.82	2.07954
417.029	2.4646
417.238	1.85526
417.447	1.77514
417.656	2.15203
417.865	1.90406
418.074	2.08755
418.283	2.21915
418.492	2.73876
418.7	2.59754
418.909	3.27598
419.118	2.5525
419.327	2.72982
419.536	2.58289
419.744	2.27637
419.953	3.23317
420.162	3.33649
420.371	2.47483
420.579	2.47347
420.788	3.41357
420.997	3.4058
421.205	3.48845
421.414	3.25463
421.623	3.2493
421.831	2.96284
422.04	3.51425
422.249	2.79707
422.457	3.37053
422.666	2.77897
422.874	3.58848
423.083	3.60928
423.291	3.64925
423.5	3.34159
423.708	3.47566
423.917	3.82961
424.125	3.44833
424.334	3.156
424.542	4.77814
424.751	4.22602
424.959	3.93773
425.167	4.21117
425.376	4.04919
425.584	3.33396
425.793	3.55369
426.001	2.81753
426.209	3.41457
426.418	2.61526
426.626	2.69106
426.834	2.46985
427.042	2.92365
