Data from WindowProjectSample_Transmission__65__00065__017427094834281098.txt Node

Date: Mon May 05 18:32:23 EDT 2025
User: jessi
Spectrometer: SR400872
Trigger mode: 0
Integration Time (sec): 5.000010E-1
Scans to average: 20
Electric dark correction enabled: true
Nonlinearity correction enabled: true
Boxcar width: 0
XAxis mode: Wavelengths
Number of Pixels in Spectrum: 3648
>>>>>Begin Spectral Data<<<<<
184.909	20707.91715
185.132	-5173.89843
185.355	-3185.79981
185.578	-18317.71437
185.801	1751.99356
186.024	9960.71166
186.247	-1842.76976
186.47	1084.09793
186.693	385.72443
186.916	321.19366
187.139	-3734.68875
187.362	3626.71314
187.585	4857.14564
187.808	3233.83755
188.031	70.35635
188.254	-54880.77602
188.476	-575.49848
188.699	6154.57833
188.922	651.03908
189.145	-15093.74448
189.368	-531.93961
189.591	-1478.74546
189.813	2845.37851
190.036	-48569.65711
190.259	-840.90633
190.482	-4140.29784
190.705	7222.3426
190.927	-2500.92988
191.15	13463.17626
191.373	3315.33257
191.595	-8825.03149
191.818	-4167.11065
192.041	-7191.51966
192.263	-3342.62593
192.486	-746.63374
192.709	-3768.38878
192.931	7768.89548
193.154	-28287.90933
193.377	-2848.50189
193.599	-2420.97837
193.822	-9598.38402
194.044	-1881.03399
194.267	1188.10517
194.489	313.74089
194.712	-42979.27644
194.934	-31962.66726
195.157	1306.34661
195.379	1401.19332
195.602	-7134.19013
195.824	-1301.36915
196.047	-8266.71608
196.269	2682.59555
196.492	-6528.97042
196.714	27540.49839
196.936	-8533.33164
197.159	-1149.88234
197.381	1115.96085
197.604	403.29238
197.826	11773.32793
198.048	-10215.29031
198.271	-2790.26133
198.493	7565.17148
198.715	2344.25519
198.938	-439.12153
199.16	6741.31005
199.382	-101377.40948
199.604	2615.09497
199.827	-1048.17834
200.049	-2748.40202
200.271	13417.87145
200.493	1184.81071
200.715	-36902.34534
200.938	-6138.58978
201.16	-4187.17669
201.382	19834.66442
201.604	2200.05369
201.826	2300.96896
202.048	-1932.55773
202.27	-1894.71371
202.492	-34237.81637
202.715	2951.1758
202.937	-4507.76062
203.159	-6302.58136
203.381	1516.9523
203.603	6599.94602
203.825	6541.39528
204.047	2202.2445
204.269	-2694.77515
204.491	2087.10901
204.713	5747.9111
204.935	-493872.35738
205.156	1062.89372
205.378	-2831.40012
205.6	1620.17977
205.822	152494.11763
206.044	-1073.95103
206.266	1626.26617
206.488	4473.96409
206.71	-5220.39218
206.932	1110.48715
207.153	11886.66277
207.375	-6786.74393
207.597	-37588.27522
207.819	-2845.90061
208.041	2434.24648
208.262	494.99536
208.484	724.13857
208.706	-762.20222
208.927	-774.36532
209.149	547.57634
209.371	-2841.32322
209.593	-238.59741
209.814	-762.22399
210.036	587.33322
210.258	-605.32353
210.479	1742.27509
210.701	1576.78843
210.922	3163.214
211.144	-3620.01948
211.366	2083.6974
211.587	8051.34839
211.809	-8085.17129
212.03	2365.64951
212.252	487.67984
212.473	1998.85298
212.695	-6501.42589
212.916	2987.82834
213.138	-667.93795
213.359	3757.86997
213.581	4855.72679
213.802	-809.28234
214.024	1065.42169
214.245	1949.98967
214.466	2641.79421
214.688	-3009.57868
214.909	-1205.30047
215.131	-1620.12965
215.352	-2963.95627
215.573	14774.41803
215.795	5235.55204
216.016	5165.53318
216.237	809.06287
216.459	3601.62812
216.68	1834.82553
216.901	5116.39585
217.122	-3131.97534
217.344	-11811.88843
217.565	3518.65751
217.786	8896.37297
218.007	16174.66664
218.228	-675.67768
218.45	5662.14711
218.671	769.76093
218.892	36426.1638
219.113	1510.17448
219.334	-301.85237
219.555	9044.7174
219.776	3052.97326
219.997	22365.28362
220.219	2613.15973
220.44	-11411.85923
220.661	426.69831
220.882	1471.55407
221.103	-1016.82234
221.324	2229.36225
221.545	2215.9
221.766	-8747.8377
221.987	946.2956
222.208	1657.22283
222.429	4359.78812
222.65	172.25675
222.87	19134.69267
223.091	707.1994
223.312	554.93329
223.533	1350.49804
223.754	1459.46203
223.975	1372.25637
224.196	1885.57622
224.417	1347.37312
224.637	622.82196
224.858	96.79781
225.079	1090.59191
225.3	654.82068
225.521	3793.05275
225.741	467.5237
225.962	499.57613
226.183	138.85147
226.404	665.68718
226.624	425.45193
226.845	669.89126
227.066	409.69146
227.286	242.54265
227.507	131.31678
227.728	107.69641
227.948	232.97972
228.169	78.98966
228.389	85.9249
228.61	44.79855
228.831	63.25576
229.051	2.02259
229.272	37.22939
229.492	57.00624
229.713	13.57669
229.933	38.22361
230.154	32.66688
230.374	56.25451
230.595	38.07477
230.815	21.05575
231.036	40.60493
231.256	-9.61898
231.477	67.55693
231.697	38.00746
231.917	40.26
232.138	56.78023
232.358	114.0597
232.579	103.88887
232.799	16.57178
233.019	96.77035
233.24	114.22109
233.46	35.13949
233.68	59.1638
233.901	46.67554
234.121	26.29142
234.341	13.04089
234.561	-5.61567
234.782	22.11862
235.002	66.93256
235.222	-4.98374
235.442	63.9565
235.662	30.04922
235.883	60.95531
236.103	50.60227
236.323	35.26388
236.543	28.69548
236.763	38.84549
236.983	46.79951
237.203	40.08209
237.423	62.05474
237.643	86.58415
237.864	77.56299
238.084	18.29149
238.304	22.71512
238.524	43.5729
238.744	38.37137
238.964	74.21357
239.184	62.89186
239.404	63.34465
239.624	34.37677
239.843	57.2871
240.063	35.68816
240.283	20.05676
240.503	24.76485
240.723	25.0004
240.943	13.00944
241.163	20.08268
241.383	15.17322
241.603	7.15757
241.822	9.62603
242.042	6.19855
242.262	7.98398
242.482	9.01215
242.702	10.39549
242.921	2.85317
243.141	6.62256
243.361	6.28934
243.581	9.77027
243.8	7.05319
244.02	5.09166
244.24	9.3346
244.459	9.24293
244.679	17.51218
244.899	11.12545
245.118	12.54681
245.338	12.61052
245.558	14.22817
245.777	8.47035
245.997	9.93327
246.216	10.30723
246.436	6.43831
246.655	4.33522
246.875	3.16378
247.094	6.23428
247.314	1.97386
247.533	3.6727
247.753	4.37625
247.972	3.3032
248.192	1.43447
248.411	2.01646
248.631	3.65951
248.85	4.63302
249.07	3.87571
249.289	5.84297
249.508	5.09106
249.728	6.76296
249.947	7.06745
250.166	8.5406
250.386	4.42898
250.605	6.68678
250.824	10.65474
251.044	7.9915
251.263	28.82294
251.482	14.34105
251.701	11.42985
251.921	-0.75076
252.14	2.83811
252.359	3.88357
252.578	9.84185
252.798	3.35996
253.017	9.1652
253.236	4.10404
253.455	5.59022
253.674	9.91568
253.893	4.91079
254.112	8.00014
254.331	10.97418
254.551	8.66372
254.77	3.19085
254.989	12.44511
255.208	9.81203
255.427	15.24618
255.646	11.07423
255.865	21.66932
256.084	8.16136
256.303	10.25597
256.522	13.48513
256.741	2.97109
256.96	2.5987
257.179	8.55088
257.397	11.30932
257.616	5.57128
257.835	6.00021
258.054	15.4824
258.273	10.22379
258.492	11.17688
258.711	6.45798
258.93	2.93446
259.148	4.72134
259.367	4.59867
259.586	5.52064
259.805	2.25091
260.023	5.1122
260.242	3.82752
260.461	2.66468
260.68	1.2896
260.898	4.34931
261.117	1.34959
261.336	0.95575
261.554	3.61835
261.773	3.32483
261.992	0.60927
262.21	3.13031
262.429	3.44911
262.648	7.44929
262.866	8.35086
263.085	5.50583
263.303	4.67166
263.522	8.74758
263.74	8.65094
263.959	15.23276
264.178	7.21729
264.396	7.19564
264.615	4.45433
264.833	10.37043
265.051	8.81091
265.27	11.19298
265.488	11.39517
265.707	5.996
265.925	10.96611
266.144	4.49826
266.362	5.66245
266.58	5.17643
266.799	4.94417
267.017	6.2537
267.235	4.93309
267.454	3.06962
267.672	1.73948
267.89	3.94314
268.109	4.39863
268.327	4.16938
268.545	0.79328
268.763	3.78484
268.982	1.5222
269.2	4.18176
269.418	2.96022
269.636	1.95214
269.854	4.36095
270.073	3.02101
270.291	1.87007
270.509	1.72038
270.727	4.54386
270.945	7.40878
271.163	6.97763
271.381	1.18136
271.599	3.13806
271.817	5.3137
272.036	1.72143
272.254	3.10652
272.472	2.39961
272.69	2.42151
272.908	2.17706
273.126	4.49683
273.344	5.22618
273.562	1.70169
273.779	2.6874
273.997	3.87833
274.215	4.05376
274.433	2.85337
274.651	4.23057
274.869	4.61223
275.087	2.75258
275.305	3.86728
275.523	2.43279
275.74	3.02449
275.958	5.3056
276.176	8.02168
276.394	2.5546
276.612	3.05601
276.829	3.06832
277.047	2.50267
277.265	2.77533
277.483	3.31481
277.7	4.3897
277.918	3.44447
278.136	6.20508
278.353	2.84855
278.571	1.78669
278.789	4.32449
279.006	0.89366
279.224	2.92569
279.442	4.87761
279.659	3.49713
279.877	2.22961
280.094	5.87867
280.312	0.99077
280.529	3.54984
280.747	0.67269
280.964	2.54912
281.182	6.10675
281.399	2.76591
281.617	3.74641
281.834	2.59307
282.052	1.84329
282.269	3.01543
282.487	2.42151
282.704	2.00324
282.921	2.26497
283.139	3.3529
283.356	3.92276
283.574	3.7666
283.791	1.9675
284.008	5.49083
284.226	2.91891
284.443	3.21936
284.66	4.2393
284.877	3.41994
285.095	2.02795
285.312	1.63114
285.529	0.85274
285.746	0.78136
285.964	2.04603
286.181	1.31591
286.398	1.88946
286.615	2.65917
286.832	2.57404
287.05	0.50847
287.267	1.83816
287.484	1.71677
287.701	2.55556
287.918	2.61577
288.135	2.70031
288.352	1.22861
288.569	1.38719
288.786	2.42216
289.003	2.00972
289.22	2.94273
289.437	1.53175
289.654	2.85438
289.871	3.07416
290.088	2.95896
290.305	2.21871
290.522	1.71024
290.739	2.00741
290.956	3.14086
291.173	3.49383
291.39	3.38192
291.607	2.36776
291.824	1.67627
292.04	1.17404
292.257	2.83137
292.474	3.28974
292.691	1.94919
292.908	0.82972
293.125	1.71399
293.341	1.10044
293.558	5.00597
293.775	1.73767
293.992	1.922
294.208	0.97215
294.425	1.18692
294.642	1.90053
294.858	2.77432
295.075	0.65655
295.292	1.93904
295.508	2.30159
295.725	4.04252
295.942	1.6444
296.158	1.15785
296.375	2.01959
296.591	1.5049
296.808	1.68162
297.024	1.8692
297.241	2.18979
297.458	2.3703
297.674	0.08951
297.891	1.80658
298.107	1.33586
298.323	1.06195
298.54	3.02429
298.756	1.11296
298.973	0.64964
299.189	2.96721
299.406	1.11065
299.622	2.79521
299.838	2.72866
300.055	2.53068
300.271	0.47529
300.487	0.97273
300.704	1.17961
300.92	0.64794
301.136	4.09708
301.353	2.54402
301.569	1.8036
301.785	2.14667
302.001	2.59738
302.218	2.26853
302.434	2.30162
302.65	0.70944
302.866	1.50701
303.083	3.82859
303.299	3.64874
303.515	1.9243
303.731	2.17383
303.947	0.52561
304.163	1.2223
304.379	1.92571
304.595	2.38251
304.812	1.10283
305.028	1.13863
305.244	1.63966
305.46	2.68432
305.676	2.57504
305.892	3.12005
306.108	2.21325
306.324	1.34304
306.54	3.72288
306.756	2.52218
306.972	2.39623
307.187	1.57879
307.403	3.34519
307.619	1.45578
307.835	2.98631
308.051	3.49826
308.267	0.90648
308.483	2.87696
308.699	2.30237
308.914	1.961
309.13	1.74508
309.346	0.52086
309.562	0.93005
309.778	0.61377
309.993	2.46512
310.209	1.81711
310.425	0.86601
310.641	1.56664
310.856	0.93649
311.072	0.89272
311.288	1.76058
311.503	1.88124
311.719	0.31069
311.935	0.18456
312.15	2.1491
312.366	1.7638
312.581	2.16145
312.797	1.68351
313.013	2.46467
313.228	1.15506
313.444	1.75674
313.659	1.3046
313.875	2.29669
314.09	1.72748
314.306	3.2113
314.521	2.57127
314.737	2.60311
314.952	1.45665
315.168	1.64948
315.383	2.23591
315.599	1.67126
315.814	1.4375
316.029	2.50299
316.245	0.66184
316.46	0.45307
316.675	3.00006
316.891	3.4602
317.106	4.50261
317.321	2.10965
317.537	2.37866
317.752	2.66321
317.967	2.59965
318.183	0.97908
318.398	1.59044
318.613	2.67448
318.828	3.21898
319.043	2.5586
319.259	1.68626
319.474	2.14232
319.689	3.01452
319.904	0.43155
320.119	2.49107
320.334	2.19202
320.549	1.66851
320.765	2.93465
320.98	2.11024
321.195	2.40896
321.41	1.78909
321.625	2.51394
321.84	3.53728
322.055	3.59215
322.27	1.30157
322.485	1.00572
322.7	2.20955
322.915	2.85826
323.13	1.04921
323.345	3.1609
323.56	2.63641
323.775	2.30913
323.989	2.24558
324.204	2.11907
324.419	2.90395
324.634	0.85399
324.849	1.63701
325.064	4.84886
325.279	2.8102
325.493	2.35119
325.708	2.70303
325.923	1.28775
326.138	1.22237
326.352	3.41718
326.567	2.8913
326.782	1.57493
326.997	1.32368
327.211	2.50941
327.426	2.24169
327.641	1.57609
327.855	0.52317
328.07	2.14874
328.285	3.40607
328.499	1.3145
328.714	2.08423
328.928	2.59842
329.143	1.63786
329.358	2.66307
329.572	2.90456
329.787	2.94045
330.001	4.15254
330.216	0.79695
330.43	3.55782
330.645	3.50876
330.859	2.6872
331.074	1.41976
331.288	2.11403
331.503	3.03579
331.717	1.09029
331.931	2.11284
332.146	2.04452
332.36	3.61968
332.575	2.28494
332.789	2.37561
333.003	2.11401
333.218	2.38784
333.432	1.32668
333.646	2.63731
333.86	3.40078
334.075	3.29358
334.289	1.53558
334.503	1.1482
334.717	2.31959
334.932	2.25775
335.146	3.18212
335.36	1.61725
335.574	2.53634
335.788	2.33748
336.003	2.86414
336.217	2.38733
336.431	2.50075
336.645	1.39595
336.859	0.98168
337.073	1.71218
337.287	2.1443
337.501	1.0809
337.715	2.16859
337.929	2.74709
338.143	1.0277
338.357	1.87585
338.571	1.24776
338.785	2.28745
338.999	1.599
339.213	1.47136
339.427	0.67896
339.641	3.06143
339.855	1.76743
340.069	1.39591
340.283	2.80944
340.497	3.60503
340.711	2.13636
340.924	1.58257
341.138	0.90279
341.352	0.81177
341.566	2.18411
341.78	0.46673
341.993	1.50462
342.207	1.09207
342.421	2.00993
342.635	1.76323
342.848	1.39493
343.062	0.08248
343.276	1.27325
343.49	3.57773
343.703	1.41624
343.917	2.68501
344.131	2.62377
344.344	1.3603
344.558	1.53722
344.771	0.91779
344.985	3.32905
345.199	3.09497
345.412	2.02894
345.626	2.05685
345.839	0.5112
346.053	0.85548
346.266	0.87561
346.48	2.39681
346.693	2.10564
346.907	1.96292
347.12	1.08342
347.334	2.08825
347.547	2.02805
347.76	1.41658
347.974	2.84971
348.187	2.06825
348.401	1.27564
348.614	1.34733
348.827	1.39356
349.041	2.13525
349.254	0.46028
349.467	1.59412
349.681	0.6372
349.894	1.33602
350.107	2.80692
350.32	3.09329
350.534	0.53414
350.747	1.38758
350.96	1.13488
351.173	1.24962
351.386	1.50386
351.6	1.37332
351.813	1.21946
352.026	1.54343
352.239	0.53183
352.452	1.50454
352.665	2.4433
352.878	1.65255
353.092	3.33276
353.305	2.23816
353.518	1.90525
353.731	1.05227
353.944	2.6526
354.157	1.2376
354.37	0.99744
354.583	0.87583
354.796	0.32496
355.009	2.55741
355.222	1.93843
355.435	1.66281
355.647	2.32293
355.86	0.84722
356.073	1.62223
356.286	1.22874
356.499	2.14613
356.712	1.80962
356.925	2.09973
357.138	2.2534
357.35	0.92361
357.563	1.38127
357.776	1.66824
357.989	1.23529
358.201	1.89271
358.414	1.60157
358.627	2.51187
358.84	1.31225
359.052	0.67712
359.265	0.81963
359.478	2.37877
359.69	-0.37027
359.903	1.95206
360.116	2.22513
360.328	0.23481
360.541	2.15354
360.753	0.67093
360.966	1.03163
361.179	1.11153
361.391	1.01817
361.604	0.72936
361.816	1.11856
362.029	0.89436
362.241	0.73641
362.454	0.95246
362.666	0.73157
362.879	1.38307
363.091	1.1159
363.304	0.75873
363.516	1.34473
363.728	0.58832
363.941	1.78434
364.153	0.95504
364.366	-0.169
364.578	0.61284
364.79	1.59225
365.003	1.21165
365.215	0.99588
365.427	1.65529
365.639	2.19845
365.852	1.41143
366.064	3.04183
366.276	1.06545
366.488	1.68256
366.701	1.01325
366.913	1.31602
367.125	1.21816
367.337	0.79699
367.549	0.92267
367.762	1.5354
367.974	1.42135
368.186	0.70067
368.398	2.00089
368.61	1.77678
368.822	1.86504
369.034	1.34906
369.246	1.79147
369.458	3.41337
369.67	0.71742
369.882	2.70837
370.094	0.12058
370.306	2.61318
370.518	1.16837
370.73	0.80052
370.942	0.77161
371.154	1.18649
371.366	0.91396
371.578	1.40053
371.79	0.80164
372.002	2.16078
372.214	2.61605
372.425	1.38703
372.637	2.12193
372.849	1.56234
373.061	-0.00139
373.273	1.59376
373.484	1.54249
373.696	1.93355
373.908	-0.03106
374.12	2.22373
374.331	1.50931
374.543	0.8354
374.755	0.67304
374.967	1.49917
375.178	1.81187
375.39	1.11789
375.602	1.37564
375.813	0.40924
376.025	0.56428
376.236	1.39516
376.448	1.44146
376.66	0.94877
376.871	0.89182
377.083	2.26624
377.294	2.18538
377.506	0.94619
377.717	2.19062
377.929	1.464
378.14	0.80109
378.352	1.57428
378.563	1.41264
378.775	2.21921
378.986	0.66617
379.197	1.2598
379.409	0.87985
379.62	1.83203
379.832	1.61617
380.043	1.10136
380.254	1.33154
380.466	0.5746
380.677	3.36173
380.888	2.68428
381.1	3.10532
381.311	3.07234
381.522	1.31701
381.733	3.37927
381.945	1.1987
382.156	1.53014
382.367	0.96113
382.578	3.32946
382.789	3.15491
383.001	1.09584
383.212	2.22618
383.423	2.48054
383.634	2.2652
383.845	1.80843
384.056	1.06219
384.267	1.47679
384.478	1.34845
384.69	0.56106
384.901	1.62694
385.112	1.66505
385.323	2.43584
385.534	1.69568
385.745	1.59187
385.956	1.68581
386.167	0.73757
386.378	1.74607
386.588	0.70955
386.799	0.94533
387.01	0.42105
387.221	1.99011
387.432	1.28561
387.643	2.69402
387.854	1.2931
388.065	1.21822
388.275	1.38819
388.486	1.17234
388.697	1.31826
388.908	1.22088
389.119	2.32115
389.329	2.60569
389.54	1.48998
389.751	1.80342
389.962	2.39357
390.172	1.81191
390.383	1.17829
390.594	1.10954
390.804	1.12463
391.015	1.22333
391.226	1.58981
391.436	1.83903
391.647	1.75907
391.858	2.02285
392.068	0.49858
392.279	0.80255
392.489	1.61752
392.7	2.37659
392.91	0.95772
393.121	1.13095
393.331	1.90583
393.542	2.3178
393.752	2.06591
393.963	1.8862
394.173	1.7355
394.384	2.06699
394.594	1.71718
394.804	0.98093
395.015	1.77127
395.225	2.02211
395.436	1.10621
395.646	2.12156
395.856	1.26567
396.067	0.87244
396.277	2.38573
396.487	2.10429
396.697	1.94878
396.908	2.16203
397.118	2.2154
397.328	2.03447
397.538	2.48463
397.749	1.42839
397.959	2.3703
398.169	2.42441
398.379	1.10461
398.589	2.444
398.8	2.0097
399.01	1.91621
399.22	1.72976
399.43	3.50326
399.64	1.85943
399.85	2.55859
400.06	2.14595
400.27	1.6198
400.48	2.08926
400.69	3.08632
400.9	1.77474
401.11	1.6689
401.32	2.75468
401.53	1.96529
401.74	3.1977
401.95	2.63361
402.16	1.59235
402.37	2.49313
402.58	1.92321
402.79	2.70967
403	3.02996
403.209	1.97073
403.419	3.00013
403.629	1.93251
403.839	2.95132
404.049	2.87074
404.258	2.05115
404.468	2.00191
404.678	2.6721
404.888	3.07494
405.097	1.95029
405.307	2.42626
405.517	2.79949
405.727	2.71989
405.936	2.2771
406.146	2.66173
406.356	3.35589
406.565	2.55605
406.775	2.25803
406.984	2.29468
407.194	3.63841
407.404	2.62097
407.613	2.9978
407.823	3.2267
408.032	3.33125
408.242	3.46947
408.451	2.48753
408.661	2.6785
408.87	3.96082
409.08	2.44667
409.289	3.09218
409.499	3.08331
409.708	3.00887
409.918	1.79039
410.127	3.07391
410.336	4.05093
410.546	3.39771
410.755	2.7918
410.964	2.85372
411.174	2.55148
411.383	3.3367
411.592	3.36525
411.802	2.52191
412.011	3.63405
412.22	2.98578
412.429	4.24167
412.639	4.04988
412.848	3.90545
413.057	3.96124
413.266	4.0108
413.475	3.3263
413.685	3.66245
413.894	3.95369
414.103	4.20739
414.312	3.98002
414.521	3.43413
414.73	3.51053
414.939	4.84053
415.148	3.9344
415.357	3.80319
415.566	3.37462
415.776	3.47733
415.985	3.43452
416.194	4.11982
416.403	4.7933
416.611	3.00867
416.82	3.51271
417.029	3.89152
417.238	3.51833
417.447	3.41156
417.656	3.73598
417.865	3.49881
418.074	3.73196
418.283	3.94063
418.492	4.53409
418.7	4.34836
418.909	5.09548
419.118	4.3709
419.327	4.61288
419.536	4.46683
419.744	4.35178
419.953	5.423
420.162	5.48204
420.371	4.8351
420.579	5.02693
420.788	5.79821
420.997	5.92054
421.205	6.01303
421.414	5.77036
421.623	5.78122
421.831	5.4551
422.04	5.98537
422.249	5.18064
422.457	5.7862
422.666	5.06109
422.874	5.89075
423.083	6.07158
423.291	6.04335
423.5	5.89418
423.708	6.16906
423.917	6.48442
424.125	6.07145
424.334	5.9327
424.542	7.37824
424.751	6.85176
424.959	6.4913
425.167	6.70477
425.376	6.52339
425.584	5.5966
425.793	5.73275
426.001	4.98957
426.209	5.4243
426.418	4.58484
426.626	4.44338
426.834	4.36497
427.042	4.67023
