Data from WindowProjectSample_Transmission__12__00012__0945380751951042.txt Node

Date: Mon May 05 16:57:19 EDT 2025
User: jessi
Spectrometer: SR400872
Trigger mode: 0
Integration Time (sec): 5.000010E-1
Scans to average: 20
Electric dark correction enabled: true
Nonlinearity correction enabled: true
Boxcar width: 0
XAxis mode: Wavelengths
Number of Pixels in Spectrum: 3648
>>>>>Begin Spectral Data<<<<<
184.909	20793.85065
185.132	-5018.09538
185.355	-3105.46694
185.578	-17532.47928
185.801	1948.61973
186.024	10347.70862
186.247	-1742.42606
186.47	1196.1709
186.693	355.19389
186.916	299.5092
187.139	-3720.71014
187.362	3521.18699
187.585	3909.93004
187.808	3640.46061
188.031	43.37917
188.254	-53863.295
188.476	-1619.08632
188.699	6386.52419
188.922	560.47521
189.145	-15347.3395
189.368	-534.56643
189.591	-1381.85278
189.813	3054.11346
190.036	-49872.0794
190.259	-882.26028
190.482	-4457.49196
190.705	6928.6891
190.927	-2604.92796
191.15	13060.39562
191.373	3248.66858
191.595	-8723.30828
191.818	-4148.50251
192.041	-5780.09484
192.263	-3269.00789
192.486	-918.52383
192.709	-3755.13417
192.931	7843.59093
193.154	-28493.41079
193.377	-2915.07795
193.599	-2451.69818
193.822	-8711.23223
194.044	-1860.46476
194.267	1153.5615
194.489	244.28026
194.712	-41327.69881
194.934	-31725.65284
195.157	1071.8539
195.379	1395.65836
195.602	-6965.94402
195.824	-1267.1458
196.047	-8717.03704
196.269	2665.94485
196.492	-6397.78472
196.714	28365.53516
196.936	-8344.62482
197.159	-1214.00708
197.381	1066.39682
197.604	279.01649
197.826	12401.59898
198.048	-10477.4436
198.271	-2750.07158
198.493	7761.27597
198.715	2362.68263
198.938	-491.57511
199.16	6862.12091
199.382	-100272.03453
199.604	2608.45541
199.827	-1058.28615
200.049	-2827.66625
200.271	14530.20511
200.493	1220.91366
200.715	-38327.92637
200.938	-6069.65289
201.16	-4227.97022
201.382	20182.15685
201.604	2331.35957
201.826	2287.64738
202.048	-1957.70153
202.27	-2063.72637
202.492	-35555.31298
202.715	2725.95879
202.937	-4408.02195
203.159	-6152.77877
203.381	1476.11239
203.603	6548.51057
203.825	6901.08982
204.047	2136.44764
204.269	-2666.29824
204.491	2241.62847
204.713	5702.52293
204.935	-480626.016
205.156	1163.11602
205.378	-2615.0398
205.6	1561.51387
205.822	149437.45
206.044	-1049.57456
206.266	1586.86666
206.488	4882.52745
206.71	-5149.17349
206.932	1087.06042
207.153	11834.04371
207.375	-6827.33451
207.597	-37181.08424
207.819	-2781.36781
208.041	2331.22148
208.262	465.81719
208.484	733.39248
208.706	-784.87961
208.927	-787.74784
209.149	542.96241
209.371	-2922.54005
209.593	-302.54881
209.814	-758.54647
210.036	647.53647
210.258	-605.80277
210.479	1705.80316
210.701	1637.75915
210.922	3268.55155
211.144	-4014.90141
211.366	2074.75346
211.587	6997.93582
211.809	-8085.89524
212.03	2264.31037
212.252	460.52635
212.473	1988.38129
212.695	-6560.63012
212.916	2844.38973
213.138	-673.10017
213.359	3649.41831
213.581	5238.52954
213.802	-760.54795
214.024	1159.89047
214.245	1989.97429
214.466	3914.07199
214.688	-2935.9804
214.909	-1248.50083
215.131	-1843.29787
215.352	-3113.88625
215.573	14868.40053
215.795	4924.62215
216.016	5311.64665
216.237	777.63229
216.459	3498.01476
216.68	1721.705
216.901	4796.23372
217.122	-2993.28481
217.344	-10605.62375
217.565	3360.41299
217.786	8780.17046
218.007	14990.21499
218.228	-670.08293
218.45	5612.23487
218.671	731.4742
218.892	36520.05063
219.113	1636.7818
219.334	-253.75817
219.555	9453.14066
219.776	2983.11576
219.997	22529.4093
220.219	2788.7295
220.44	-10904.86005
220.661	434.12219
220.882	1499.59914
221.103	-1173.34244
221.324	2224.25661
221.545	2267.37217
221.766	-8908.69465
221.987	910.59893
222.208	1682.25026
222.429	4270.365
222.65	325.80847
222.87	17363.96513
223.091	720.09615
223.312	608.41294
223.533	1272.51598
223.754	1429.57632
223.975	1357.0678
224.196	1924.70207
224.417	1321.33903
224.637	557.80612
224.858	106.62253
225.079	1072.15216
225.3	641.00213
225.521	3727.87458
225.741	467.23221
225.962	482.19343
226.183	142.50462
226.404	655.29933
226.624	434.98157
226.845	607.02119
227.066	410.59807
227.286	251.02817
227.507	121.18206
227.728	115.67827
227.948	235.91855
228.169	72.90839
228.389	85.8885
228.61	48.59969
228.831	63.01294
229.051	0.59133
229.272	38.06221
229.492	55.55451
229.713	13.69848
229.933	37.67081
230.154	31.67369
230.374	53.80705
230.595	36.5127
230.815	23.29974
231.036	39.90494
231.256	-8.53285
231.477	66.55749
231.697	38.38903
231.917	39.56264
232.138	57.65759
232.358	105.55652
232.579	102.40784
232.799	17.77308
233.019	102.27331
233.24	112.10907
233.46	37.04023
233.68	64.7584
233.901	41.53599
234.121	27.27588
234.341	11.67523
234.561	-2.96178
234.782	19.94897
235.002	63.37821
235.222	-4.81782
235.442	64.19098
235.662	32.97059
235.883	60.78515
236.103	50.35872
236.323	38.43198
236.543	30.64159
236.763	41.12862
236.983	43.33522
237.203	42.76317
237.423	58.11115
237.643	86.78866
237.864	70.31274
238.084	19.12784
238.304	26.72533
238.524	41.58791
238.744	39.64236
238.964	71.24034
239.184	61.31979
239.404	63.27522
239.624	32.94623
239.843	58.78655
240.063	35.59887
240.283	20.40688
240.503	24.37404
240.723	25.98308
240.943	13.91689
241.163	19.15205
241.383	14.12217
241.603	7.85745
241.822	10.17028
242.042	5.88803
242.262	8.34464
242.482	9.3463
242.702	10.53914
242.921	3.01051
243.141	6.6852
243.361	6.06252
243.581	9.52189
243.8	7.30073
244.02	5.71221
244.24	9.40167
244.459	9.1225
244.679	17.62831
244.899	11.2127
245.118	12.6766
245.338	11.50757
245.558	13.39748
245.777	8.38319
245.997	10.43642
246.216	10.65207
246.436	6.10205
246.655	4.54655
246.875	3.11041
247.094	6.20686
247.314	1.92716
247.533	3.56176
247.753	4.3987
247.972	3.44061
248.192	1.16462
248.411	1.83184
248.631	3.42477
248.85	4.64497
249.07	3.61811
249.289	5.80559
249.508	5.13808
249.728	7.64825
249.947	7.25623
250.166	8.62625
250.386	4.20665
250.605	6.8639
250.824	10.29184
251.044	7.4585
251.263	28.20418
251.482	14.1079
251.701	11.38298
251.921	-0.13003
252.14	3.00848
252.359	3.6436
252.578	9.80153
252.798	3.21969
253.017	8.62748
253.236	3.76364
253.455	5.49944
253.674	9.7669
253.893	4.98185
254.112	7.2596
254.331	11.24808
254.551	8.90993
254.77	3.48321
254.989	12.92881
255.208	9.9047
255.427	14.46915
255.646	10.98792
255.865	22.30204
256.084	8.41784
256.303	10.42054
256.522	13.5117
256.741	3.05472
256.96	2.73288
257.179	7.90264
257.397	10.44619
257.616	5.79937
257.835	5.95065
258.054	15.1144
258.273	10.34941
258.492	11.02977
258.711	6.33577
258.93	3.01668
259.148	4.75077
259.367	4.73698
259.586	5.4847
259.805	2.32342
260.023	5.20636
260.242	3.92334
260.461	2.8323
260.68	1.27541
260.898	4.38642
261.117	1.39732
261.336	0.84308
261.554	3.41483
261.773	3.46921
261.992	0.71114
262.21	3.06029
262.429	3.40056
262.648	7.3872
262.866	7.73532
263.085	5.54862
263.303	5.00172
263.522	8.6558
263.74	8.9203
263.959	15.2342
264.178	6.92389
264.396	6.23303
264.615	4.44051
264.833	10.60299
265.051	8.86644
265.27	10.77322
265.488	11.11845
265.707	6.2248
265.925	10.98183
266.144	4.54734
266.362	5.48326
266.58	5.00004
266.799	5.00397
267.017	6.12291
267.235	5.34012
267.454	3.19928
267.672	1.75997
267.89	4.00315
268.109	4.32686
268.327	4.34066
268.545	0.81397
268.763	3.78984
268.982	1.40376
269.2	4.34143
269.418	2.86889
269.636	1.72309
269.854	4.51046
270.073	3.03268
270.291	1.87109
270.509	2.02917
270.727	4.32747
270.945	7.15305
271.163	7.09582
271.381	1.39978
271.599	3.29711
271.817	5.33096
272.036	1.86973
272.254	2.85883
272.472	2.33554
272.69	2.45212
272.908	2.34548
273.126	4.42036
273.344	5.31829
273.562	1.78913
273.779	2.51639
273.997	3.71399
274.215	4.00119
274.433	2.90564
274.651	4.26221
274.869	4.82182
275.087	2.84128
275.305	4.00606
275.523	2.51911
275.74	2.79005
275.958	5.20775
276.176	8.2134
276.394	2.49937
276.612	3.3332
276.829	3.15824
277.047	2.60718
277.265	2.89646
277.483	3.52207
277.7	4.31563
277.918	3.36563
278.136	6.1367
278.353	2.65341
278.571	1.63764
278.789	4.32895
279.006	0.88725
279.224	2.89932
279.442	5.17089
279.659	3.38455
279.877	2.40632
280.094	5.90745
280.312	1.20305
280.529	3.49227
280.747	0.8276
280.964	2.59182
281.182	5.71017
281.399	2.61508
281.617	3.75049
281.834	2.59408
282.052	1.9024
282.269	3.13778
282.487	2.21578
282.704	2.06378
282.921	2.11684
283.139	3.22752
283.356	3.846
283.574	3.75753
283.791	1.83187
284.008	5.48039
284.226	2.90141
284.443	3.33502
284.66	4.4796
284.877	3.2812
285.095	1.94254
285.312	1.5728
285.529	0.93229
285.746	0.83266
285.964	1.9238
286.181	1.31123
286.398	1.79031
286.615	2.70609
286.832	2.54791
287.05	0.39205
287.267	1.81962
287.484	2.37565
287.701	2.42045
287.918	2.54902
288.135	2.5211
288.352	1.19337
288.569	1.48247
288.786	2.42889
289.003	2.13673
289.22	2.99508
289.437	1.67299
289.654	2.85092
289.871	2.97176
290.088	2.82657
290.305	2.18104
290.522	1.73318
290.739	1.99668
290.956	3.15923
291.173	3.44178
291.39	3.35369
291.607	2.33831
291.824	1.68841
292.04	1.21417
292.257	2.81409
292.474	3.18547
292.691	1.97938
292.908	1.06082
293.125	1.7812
293.341	1.16152
293.558	4.85448
293.775	1.93526
293.992	2.35761
294.208	0.7896
294.425	1.40177
294.642	1.87913
294.858	2.73199
295.075	0.6134
295.292	1.89847
295.508	2.28538
295.725	4.04485
295.942	1.85659
296.158	1.34585
296.375	2.20177
296.591	1.73871
296.808	1.91416
297.024	2.19487
297.241	2.47887
297.458	2.6854
297.674	0.55022
297.891	2.13659
298.107	1.95598
298.323	1.52928
298.54	3.58772
298.756	1.85532
298.973	1.20882
299.189	3.69534
299.406	1.94869
299.622	3.43646
299.838	3.44383
300.055	3.32914
300.271	1.4116
300.487	1.92567
300.704	2.17509
300.92	1.58616
301.136	5.24945
301.353	3.56576
301.569	2.72252
301.785	3.146
302.001	3.49158
302.218	3.19362
302.434	3.49264
302.65	1.825
302.866	2.56431
303.083	5.30223
303.299	4.99921
303.515	3.30309
303.731	3.63252
303.947	2.07658
304.163	2.65083
304.379	3.58322
304.595	3.88547
304.812	2.5861
305.028	2.67037
305.244	3.19682
305.46	4.07373
305.676	4.16947
305.892	4.64987
306.108	4.07389
306.324	3.10763
306.54	5.2571
306.756	4.13207
306.972	3.94813
307.187	3.59539
307.403	4.83593
307.619	3.17623
307.835	4.71071
308.051	5.00676
308.267	2.85331
308.483	4.90102
308.699	4.23372
308.914	3.82892
309.13	3.72739
309.346	2.67948
309.562	3.03324
309.778	2.7232
309.993	4.2996
310.209	4.1231
310.425	2.94984
310.641	3.99113
310.856	3.23713
311.072	3.16002
311.288	4.00712
311.503	4.34436
311.719	2.60436
311.935	2.76476
312.15	4.6769
312.366	4.30231
312.581	4.66153
312.797	4.24682
313.013	5.00806
313.228	3.66215
313.444	4.01103
313.659	3.73418
313.875	4.67495
314.09	4.07004
314.306	5.34886
314.521	4.94933
314.737	4.9422
314.952	4.13675
315.168	4.30089
315.383	4.60561
315.599	3.92611
315.814	4.11317
316.029	5.01457
316.245	3.47685
316.46	2.89985
316.675	5.42385
316.891	5.85436
317.106	6.88228
317.321	4.53435
317.537	4.95166
317.752	5.13837
317.967	5.2216
318.183	3.55596
318.398	4.12066
318.613	5.16651
318.828	5.79964
319.043	5.20058
319.259	4.22456
319.474	4.81706
319.689	5.62823
319.904	2.95416
320.119	5.38902
320.334	4.75019
320.549	4.34256
320.765	5.50141
320.98	4.85608
321.195	4.98797
321.41	4.58879
321.625	5.22992
321.84	6.21105
322.055	6.1443
322.27	4.00073
322.485	3.54765
322.7	5.11946
322.915	5.38698
323.13	4.08142
323.345	6.11672
323.56	5.85459
323.775	5.28154
323.989	5.30926
324.204	5.07283
324.419	5.91609
324.634	3.86109
324.849	4.82104
325.064	7.93115
325.279	5.91794
325.493	5.22279
325.708	5.72368
325.923	4.31808
326.138	4.64174
326.352	6.37826
326.567	5.86071
326.782	4.60077
326.997	4.5417
327.211	5.41123
327.426	5.33185
327.641	4.78468
327.855	3.80891
328.07	5.49666
328.285	6.72528
328.499	4.59718
328.714	5.26847
328.928	5.38015
329.143	4.79218
329.358	6.0645
329.572	5.81057
329.787	6.37607
330.001	7.26613
330.216	3.82153
330.43	7.0417
330.645	6.33629
330.859	5.77903
331.074	4.31439
331.288	5.22471
331.503	6.58235
331.717	4.09376
331.931	5.30923
332.146	5.43314
332.36	6.88643
332.575	5.54616
332.789	5.4191
333.003	5.46483
333.218	5.6611
333.432	4.85467
333.646	6.18697
333.86	6.92376
334.075	6.73449
334.289	4.80874
334.503	4.2026
334.717	5.80726
334.932	5.44454
335.146	6.06186
335.36	4.58959
335.574	5.86541
335.788	5.69258
336.003	6.19848
336.217	6.11275
336.431	5.78426
336.645	4.87642
336.859	4.32645
337.073	5.30678
337.287	5.64384
337.501	4.34463
337.715	5.92979
337.929	6.1112
338.143	4.61805
338.357	5.20727
338.571	5.09503
338.785	6.16278
338.999	5.04274
339.213	5.12684
339.427	4.35227
339.641	6.73302
339.855	5.24722
340.069	4.93442
340.283	6.34045
340.497	6.71334
340.711	6.04523
340.924	5.6627
341.138	4.82073
341.352	4.60432
341.566	5.762
341.78	4.18175
341.993	5.27706
342.207	5.0224
342.421	5.81424
342.635	5.48935
342.848	5.27791
343.062	3.6984
343.276	5.0439
343.49	7.20069
343.703	5.04681
343.917	6.73337
344.131	6.75787
344.344	5.03888
344.558	5.51675
344.771	4.6642
344.985	7.15635
345.199	7.14929
345.412	6.16691
345.626	6.1777
345.839	4.51169
346.053	4.8782
346.266	5.011
346.48	6.29864
346.693	6.11578
346.907	6.00712
347.12	4.86667
347.334	5.88137
347.547	5.92297
347.76	5.72976
347.974	6.75634
348.187	5.86841
348.401	5.4754
348.614	4.98333
348.827	5.4872
349.041	6.13861
349.254	4.47974
349.467	5.41194
349.681	4.96712
349.894	5.03084
350.107	6.74964
350.32	7.36532
350.534	4.80646
350.747	5.57594
350.96	5.26798
351.173	5.28772
351.386	5.59913
351.6	5.3401
351.813	5.48957
352.026	5.62539
352.239	4.9423
352.452	5.61077
352.665	6.82114
352.878	5.85758
353.092	7.49405
353.305	6.63511
353.518	6.09956
353.731	5.13769
353.944	6.78797
354.157	5.63436
354.37	5.47444
354.583	5.03511
354.796	4.95929
355.009	6.72373
355.222	6.40234
355.435	6.08629
355.647	6.79715
355.86	5.40408
356.073	6.27598
356.286	5.63102
356.499	6.83484
356.712	6.64855
356.925	6.64403
357.138	6.83805
357.35	5.62624
357.563	6.02796
357.776	6.41537
357.989	6.26555
358.201	6.85313
358.414	6.56697
358.627	7.43125
358.84	6.20236
359.052	5.51513
359.265	5.7331
359.478	7.14574
359.69	4.56714
359.903	6.92385
360.116	7.09432
360.328	5.31473
360.541	7.00807
360.753	5.92535
360.966	6.26153
361.179	6.46729
361.391	6.26819
361.604	6.09296
361.816	6.43224
362.029	6.42552
362.241	6.12191
362.454	6.43089
362.666	6.07652
362.879	7.14006
363.091	6.50366
363.304	6.27613
363.516	6.40698
363.728	5.88293
363.941	6.93258
364.153	6.694
364.366	5.14396
364.578	5.77262
364.79	6.72077
365.003	6.65008
365.215	5.97969
365.427	7.04008
365.639	7.16339
365.852	6.53843
366.064	7.99177
366.276	6.45673
366.488	6.74744
366.701	6.36891
366.913	6.24088
367.125	6.4459
367.337	5.9051
367.549	6.18225
367.762	6.46512
367.974	6.58286
368.186	6.21939
368.398	7.23158
368.61	6.90656
368.822	7.00984
369.034	6.29839
369.246	7.05583
369.458	8.79774
369.67	5.98781
369.882	7.74229
370.094	5.28325
370.306	7.65319
370.518	6.43644
370.73	6.24969
370.942	6.2698
371.154	6.61621
371.366	6.46401
371.578	6.90635
371.79	6.54797
372.002	7.42958
372.214	8.35388
372.425	6.5115
372.637	7.88857
372.849	7.01696
373.061	5.41895
373.273	6.94309
373.484	6.9655
373.696	7.29677
373.908	5.19471
374.12	7.51351
374.331	6.96474
374.543	6.29152
374.755	6.27382
374.967	6.8563
375.178	7.41942
375.39	6.45818
375.602	6.9412
375.813	5.81292
376.025	6.27468
376.236	7.01289
376.448	7.19459
376.66	6.69992
376.871	6.89028
377.083	7.79615
377.294	8.36483
377.506	6.71224
377.717	8.05117
377.929	7.27464
378.14	6.99448
378.352	7.35263
378.563	7.47064
378.775	8.05266
378.986	6.4821
379.197	7.12657
379.409	6.63572
379.62	7.51776
379.832	7.42567
380.043	6.87797
380.254	7.24139
380.466	6.35467
380.677	9.14627
380.888	8.44276
381.1	8.98746
381.311	8.66073
381.522	7.41906
381.733	9.08614
381.945	7.2398
382.156	7.05032
382.367	6.88418
382.578	9.1349
382.789	9.26927
383.001	6.71045
383.212	8.54476
383.423	8.26543
383.634	8.08561
383.845	7.94042
384.056	7.15476
384.267	7.42603
384.478	7.50721
384.69	6.79613
384.901	7.74795
385.112	7.58618
385.323	8.76843
385.534	7.73907
385.745	7.71452
385.956	7.66846
386.167	6.95622
386.378	7.99881
386.588	7.0586
386.799	6.95485
387.01	6.62511
387.221	8.05564
387.432	7.66344
387.643	8.77219
387.854	7.47102
388.065	7.31068
388.275	7.45761
388.486	7.21474
388.697	7.59995
388.908	7.32197
389.119	8.48062
389.329	8.62354
389.54	7.75502
389.751	7.75421
389.962	8.55561
390.172	7.77829
390.383	7.55969
390.594	7.23577
390.804	7.36414
391.015	7.4929
391.226	7.89289
391.436	8.21399
391.647	8.20812
391.858	8.25231
392.068	7.00361
392.279	7.33961
392.489	8.12531
392.7	8.55048
392.91	7.56265
393.121	7.4885
393.331	8.30296
393.542	8.66801
393.752	8.5177
393.963	8.35814
394.173	8.21221
394.384	8.39784
394.594	8.12987
394.804	7.39568
395.015	8.27529
395.225	8.42363
395.436	7.50608
395.646	8.32262
395.856	7.86165
396.067	7.18252
396.277	8.63126
396.487	8.23094
396.697	8.27574
396.908	8.32891
397.118	8.31895
397.328	8.17852
397.538	8.56824
397.749	7.57323
397.959	8.65167
398.169	8.34562
398.379	7.31814
398.589	8.46084
398.8	8.2965
399.01	8.26964
399.22	7.96144
399.43	9.48211
399.64	8.21895
399.85	8.45225
400.06	8.20103
400.27	7.61433
400.48	8.07194
400.69	9.06739
400.9	7.80242
401.11	7.46416
401.32	8.66148
401.53	7.89266
401.74	9.14841
401.95	8.49788
402.16	7.86357
402.37	8.42934
402.58	7.91836
402.79	8.62311
403	9.01439
403.209	7.86101
403.419	9.04628
403.629	7.79957
403.839	9.01126
404.049	8.93253
404.258	8.2007
404.468	8.0148
404.678	9.00827
404.888	9.2979
405.097	8.32411
405.307	8.42843
405.517	9.03707
405.727	8.75445
405.936	8.37336
406.146	8.69277
406.356	9.37678
406.565	8.48677
406.775	8.18788
406.984	8.26364
407.194	9.5819
407.404	8.4367
407.613	9.06518
407.823	8.98695
408.032	9.23954
408.242	9.04448
408.451	8.27061
408.661	8.54595
408.87	9.57535
409.08	8.14688
409.289	8.92393
409.499	8.856
409.708	8.68406
409.918	7.42657
410.127	8.83672
410.336	9.69364
410.546	9.1875
410.755	8.48246
410.964	8.58012
411.174	8.24035
411.383	9.16692
411.592	8.97644
411.802	8.24654
412.011	9.15772
412.22	8.6828
412.429	9.78991
412.639	9.62621
412.848	9.37473
413.057	9.74639
413.266	9.48812
413.475	8.99414
413.685	9.19796
413.894	9.4428
414.103	9.53001
414.312	9.37538
414.521	8.72288
414.73	9.10913
414.939	10.29202
415.148	9.41753
415.357	9.25166
415.566	9.04176
415.776	8.93031
415.985	9.00263
416.194	9.73854
416.403	10.47165
416.611	8.62066
416.82	9.16365
417.029	9.49278
417.238	9.21802
417.447	9.0251
417.656	9.46278
417.865	9.18332
418.074	9.5191
418.283	9.65687
418.492	10.23683
418.7	10.01587
418.909	11.03529
419.118	10.23332
419.327	10.61175
419.536	10.58938
419.744	10.61744
419.953	11.82189
420.162	12.03449
420.371	11.66294
420.579	12.22223
420.788	13.06408
420.997	13.09181
421.205	13.59352
421.414	13.38157
421.623	13.50068
421.831	13.12685
422.04	13.56974
422.249	12.78297
422.457	13.02986
422.666	12.21254
422.874	12.94369
423.083	12.98515
423.291	12.98924
423.5	13.01095
423.708	13.35905
423.917	13.78893
424.125	13.4802
424.334	13.38636
424.542	14.86696
424.751	14.48349
424.959	14.06002
425.167	14.21489
425.376	13.92947
425.584	12.73441
425.793	12.62381
426.001	11.70167
426.209	11.66356
426.418	10.53445
426.626	10.31737
