Data from WindowProjectSample_Transmission__35__00035__06985535788037713.txt Node

Date: Mon May 05 17:43:33 EDT 2025
User: jessi
Spectrometer: SR400872
Trigger mode: 0
Integration Time (sec): 5.000010E-1
Scans to average: 20
Electric dark correction enabled: true
Nonlinearity correction enabled: true
Boxcar width: 0
XAxis mode: Wavelengths
Number of Pixels in Spectrum: 3648
>>>>>Begin Spectral Data<<<<<
184.909	21562.02433
185.132	-5231.93232
185.355	-3099.95619
185.578	-17837.60263
185.801	1270.07137
186.024	10334.99938
186.247	-2113.98622
186.47	1089.07948
186.693	445.81226
186.916	337.95394
187.139	-3766.59676
187.362	3760.88145
187.585	4213.49578
187.808	3806.6022
188.031	10.67034
188.254	-58780.93863
188.476	-746.59434
188.699	6429.57739
188.922	527.7512
189.145	-15582.74105
189.368	-537.08179
189.591	-1416.14376
189.813	3156.19616
190.036	-52221.35987
190.259	-848.1729
190.482	-4358.30952
190.705	7334.0316
190.927	-2489.1066
191.15	13473.8078
191.373	3379.69686
191.595	-8823.37383
191.818	-4174.58858
192.041	-6530.84209
192.263	-3410.31834
192.486	-999.3003
192.709	-4063.68909
192.931	8140.54363
193.154	-28604.17204
193.377	-2975.26875
193.599	-2605.05637
193.822	-8960.4787
194.044	-1951.06208
194.267	1164.59814
194.489	265.82461
194.712	-43783.97282
194.934	-32299.11161
195.157	1229.85524
195.379	1534.17293
195.602	-7187.66456
195.824	-1343.57878
196.047	-9641.53028
196.269	2758.91708
196.492	-6479.69899
196.714	30526.69558
196.936	-8817.08926
197.159	-1184.45828
197.381	1210.53515
197.604	485.20812
197.826	12010.49161
198.048	-12039.51766
198.271	-2978.54975
198.493	7662.52918
198.715	2256.24524
198.938	-525.56594
199.16	7924.94319
199.382	-104967.52671
199.604	2898.06649
199.827	-1119.69787
200.049	-2916.61544
200.271	14242.57992
200.493	1269.40311
200.715	-38925.89925
200.938	-6133.3959
201.16	-4298.76193
201.382	20022.47955
201.604	2297.70163
201.826	2347.25306
202.048	-2046.11941
202.27	-2070.17119
202.492	-37367.52266
202.715	2946.29301
202.937	-4698.62624
203.159	-6562.38005
203.381	1592.36629
203.603	7070.36752
203.825	6777.96304
204.047	2335.22701
204.269	-2886.86791
204.491	2217.75422
204.713	5935.44954
204.935	-521667.61816
205.156	1246.37055
205.378	-2946.43238
205.6	1677.68864
205.822	156975.7803
206.044	-1043.6834
206.266	1693.88985
206.488	4854.1889
206.71	-5348.92703
206.932	1149.63866
207.153	12573.14178
207.375	-6891.55842
207.597	-39689.94314
207.819	-2893.0667
208.041	2400.55495
208.262	469.51771
208.484	708.95755
208.706	-854.11152
208.927	-823.2861
209.149	565.78301
209.371	-3007.14629
209.593	-257.7913
209.814	-909.00787
210.036	673.38638
210.258	-664.18735
210.479	2050.25094
210.701	1756.16028
210.922	3082.81333
211.144	-3780.68771
211.366	2123.39032
211.587	8331.12226
211.809	-8029.08705
212.03	2343.76405
212.252	489.97197
212.473	2010.10461
212.695	-5805.28662
212.916	3056.2332
213.138	-780.7677
213.359	3966.27805
213.581	5279.3514
213.802	-755.60641
214.024	1157.60349
214.245	2215.80067
214.466	3219.91549
214.688	-3112.02401
214.909	-1277.14062
215.131	-1749.19123
215.352	-3277.20422
215.573	15340.84638
215.795	5227.20557
216.016	5501.74228
216.237	845.07012
216.459	3555.35267
216.68	1817.0978
216.901	5307.22973
217.122	-3422.1755
217.344	-12035.93103
217.565	3456.05909
217.786	8947.39463
218.007	18000.69897
218.228	-644.03184
218.45	5873.96176
218.671	804.75894
218.892	37075.69496
219.113	1534.3418
219.334	-474.09309
219.555	10421.32287
219.776	3162.05585
219.997	22919.20707
220.219	2701.67081
220.44	-12037.06364
220.661	496.88472
220.882	1504.58743
221.103	-1100.54015
221.324	2222.31445
221.545	2317.21473
221.766	-8926.3107
221.987	914.99745
222.208	1736.48013
222.429	4409.40237
222.65	265.06749
222.87	18084.66901
223.091	729.0234
223.312	615.00901
223.533	1399.8494
223.754	1502.84884
223.975	1396.95366
224.196	1996.83805
224.417	1350.97059
224.637	680.65256
224.858	82.06499
225.079	1121.04897
225.3	678.10012
225.521	3743.12508
225.741	473.10066
225.962	529.22644
226.183	148.772
226.404	675.68759
226.624	430.36209
226.845	606.38904
227.066	408.35011
227.286	266.95036
227.507	134.02015
227.728	115.18225
227.948	251.14448
228.169	77.16591
228.389	86.94897
228.61	48.02755
228.831	66.04503
229.051	2.97143
229.272	39.29366
229.492	59.45166
229.713	13.80472
229.933	39.42733
230.154	31.40529
230.374	55.32005
230.595	37.84487
230.815	24.3019
231.036	39.85673
231.256	-8.47759
231.477	68.45139
231.697	37.69803
231.917	41.74926
232.138	54.78709
232.358	119.85461
232.579	104.17988
232.799	19.47998
233.019	102.30426
233.24	118.57512
233.46	39.02332
233.68	60.45445
233.901	42.92224
234.121	28.4906
234.341	15.45109
234.561	-3.04262
234.782	22.27336
235.002	71.90879
235.222	-3.73388
235.442	65.48588
235.662	30.74775
235.883	64.10257
236.103	50.97812
236.323	36.55904
236.543	29.94958
236.763	36.39826
236.983	48.06143
237.203	40.68281
237.423	63.08611
237.643	87.48472
237.864	75.47798
238.084	18.39827
238.304	25.48999
238.524	47.13457
238.744	42.97255
238.964	75.90022
239.184	62.75974
239.404	66.50272
239.624	36.09097
239.843	62.77994
240.063	36.73043
240.283	22.50547
240.503	27.62729
240.723	24.99157
240.943	14.23326
241.163	20.11724
241.383	13.74819
241.603	7.59917
241.822	10.41896
242.042	6.86109
242.262	8.36275
242.482	10.10593
242.702	10.23067
242.921	2.77576
243.141	6.63707
243.361	6.5373
243.581	9.76664
243.8	7.40754
244.02	5.03958
244.24	9.34022
244.459	9.68424
244.679	17.62126
244.899	10.57257
245.118	13.92016
245.338	12.56679
245.558	14.36999
245.777	8.25313
245.997	10.64793
246.216	10.65348
246.436	6.28089
246.655	5.03079
246.875	3.37593
247.094	6.36533
247.314	2.14855
247.533	3.62117
247.753	4.44151
247.972	3.57559
248.192	1.1118
248.411	1.81327
248.631	3.64655
248.85	4.77358
249.07	3.97457
249.289	5.80417
249.508	5.20731
249.728	7.70781
249.947	6.95133
250.166	9.21275
250.386	4.71911
250.605	6.19462
250.824	11.08151
251.044	7.69482
251.263	29.24586
251.482	14.82408
251.701	11.48663
251.921	0.2819
252.14	3.46483
252.359	3.89115
252.578	10.19211
252.798	3.22909
253.017	9.39757
253.236	4.24738
253.455	5.48609
253.674	10.66319
253.893	4.79222
254.112	8.24787
254.331	11.37934
254.551	8.98143
254.77	3.51431
254.989	14.44779
255.208	9.84216
255.427	14.74024
255.646	12.38764
255.865	21.79798
256.084	9.01749
256.303	10.47871
256.522	13.67481
256.741	2.52709
256.96	3.20378
257.179	7.6538
257.397	11.13876
257.616	6.48732
257.835	6.70055
258.054	15.85913
258.273	10.55322
258.492	11.37339
258.711	6.98315
258.93	3.36245
259.148	4.96223
259.367	4.94311
259.586	5.74974
259.805	2.41452
260.023	5.34232
260.242	4.00156
260.461	2.85196
260.68	1.30574
260.898	4.55836
261.117	1.57332
261.336	0.96162
261.554	3.54161
261.773	3.3887
261.992	0.65915
262.21	3.43277
262.429	3.77318
262.648	7.56363
262.866	8.2967
263.085	5.81095
263.303	4.9184
263.522	8.41737
263.74	9.2173
263.959	15.7694
264.178	7.17098
264.396	6.76518
264.615	4.63691
264.833	10.67638
265.051	8.81388
265.27	10.96685
265.488	11.27997
265.707	6.15651
265.925	10.92289
266.144	5.20935
266.362	5.74325
266.58	5.66224
266.799	5.08043
267.017	6.48943
267.235	5.23956
267.454	3.32366
267.672	1.87096
267.89	4.16194
268.109	4.56472
268.327	4.56313
268.545	1.02992
268.763	4.33764
268.982	1.35173
269.2	4.45038
269.418	2.9496
269.636	1.91574
269.854	4.7544
270.073	3.02925
270.291	1.83655
270.509	1.52269
270.727	4.47729
270.945	7.31754
271.163	7.26522
271.381	1.42719
271.599	3.34127
271.817	5.59842
272.036	1.79267
272.254	3.34394
272.472	2.45057
272.69	2.63823
272.908	2.55115
273.126	4.67285
273.344	5.53476
273.562	1.97141
273.779	2.52594
273.997	3.9288
274.215	4.24605
274.433	2.97741
274.651	4.73948
274.869	4.95398
275.087	2.97496
275.305	4.0413
275.523	2.55838
275.74	2.89449
275.958	5.57716
276.176	8.24544
276.394	2.64557
276.612	3.30469
276.829	3.30886
277.047	2.79648
277.265	2.83549
277.483	3.50033
277.7	4.30943
277.918	3.54821
278.136	6.29763
278.353	2.86037
278.571	1.84752
278.789	4.35774
279.006	1.16807
279.224	3.2566
279.442	5.25145
279.659	3.75853
279.877	2.56287
280.094	5.90768
280.312	1.0332
280.529	3.41316
280.747	0.92421
280.964	2.76997
281.182	6.12417
281.399	2.76286
281.617	4.03432
281.834	2.47885
282.052	1.94175
282.269	3.19927
282.487	2.57622
282.704	2.10174
282.921	2.24341
283.139	3.38988
283.356	4.07274
283.574	3.87921
283.791	2.0464
284.008	5.68146
284.226	3.06628
284.443	3.31002
284.66	4.5883
284.877	3.54357
285.095	2.07973
285.312	1.54111
285.529	0.80654
285.746	0.93842
285.964	2.16746
286.181	1.42235
286.398	2.0082
286.615	2.73279
286.832	2.57203
287.05	0.61904
287.267	1.83872
287.484	1.83326
287.701	2.70534
287.918	2.6973
288.135	2.78925
288.352	1.28332
288.569	1.45899
288.786	2.40886
289.003	2.09251
289.22	3.04339
289.437	1.74678
289.654	3.02298
289.871	3.16509
290.088	3.00435
290.305	2.21502
290.522	1.76286
290.739	2.07544
290.956	3.17196
291.173	3.5762
291.39	3.5012
291.607	2.48429
291.824	1.72307
292.04	1.33952
292.257	2.95068
292.474	3.34447
292.691	1.89386
292.908	0.94462
293.125	1.62617
293.341	1.13252
293.558	5.08225
293.775	1.98026
293.992	2.17506
294.208	0.78064
294.425	1.3131
294.642	2.08621
294.858	2.92953
295.075	0.74294
295.292	1.98615
295.508	2.37245
295.725	4.13162
295.942	1.80076
296.158	1.41997
296.375	2.16
296.591	1.68305
296.808	1.91858
297.024	2.28524
297.241	2.46
297.458	2.722
297.674	0.43727
297.891	2.01169
298.107	1.83949
298.323	1.30308
298.54	3.48873
298.756	1.71728
298.973	1.03505
299.189	3.51386
299.406	1.70143
299.622	3.31751
299.838	3.1503
300.055	3.20524
300.271	1.20744
300.487	1.50268
300.704	1.91607
300.92	1.40114
301.136	4.88822
301.353	3.26982
301.569	2.4947
301.785	2.87335
302.001	3.23682
302.218	2.93394
302.434	3.14149
302.65	1.49367
302.866	2.19399
303.083	4.78675
303.299	4.73985
303.515	2.92687
303.731	3.03819
303.947	1.44176
304.163	2.25114
304.379	3.0113
304.595	3.32941
304.812	2.11225
305.028	2.16572
305.244	2.54723
305.46	3.43848
305.676	3.63722
305.892	4.12648
306.108	3.41273
306.324	2.43946
306.54	4.71899
306.756	3.46086
306.972	3.41799
307.187	2.81324
307.403	4.38693
307.619	2.55752
307.835	4.11521
308.051	4.46694
308.267	2.09453
308.483	4.04807
308.699	3.40766
308.914	3.10786
309.13	2.89803
309.346	1.76849
309.562	2.20843
309.778	1.96144
309.993	3.50329
310.209	3.14807
310.425	2.02473
310.641	3.02164
310.856	2.29356
311.072	2.18117
311.288	3.04161
311.503	3.24825
311.719	1.67334
311.935	1.61548
312.15	3.61774
312.366	3.27233
312.581	3.58371
312.797	3.14659
313.013	3.93875
313.228	2.56635
313.444	2.94865
313.659	2.54351
313.875	3.69572
314.09	3.11629
314.306	4.4474
314.521	3.86547
314.737	3.85454
314.952	3.061
315.168	3.27308
315.383	3.49117
315.599	2.91265
315.814	2.9763
316.029	3.86451
316.245	2.19312
316.46	1.68462
316.675	4.38744
316.891	4.87587
317.106	5.82822
317.321	3.49762
317.537	3.92287
317.752	4.05221
317.967	4.04138
318.183	2.44555
318.398	2.89919
318.613	3.9307
318.828	4.62538
319.043	3.94077
319.259	2.99213
319.474	3.40989
319.689	4.41082
319.904	1.79776
320.119	4.0887
320.334	3.48628
320.549	3.00337
320.765	4.2373
320.98	3.59601
321.195	3.78704
321.41	3.19408
321.625	4.08638
321.84	5.00051
322.055	4.91158
322.27	2.68255
322.485	2.3824
322.7	3.68183
322.915	4.01183
323.13	2.71617
323.345	4.72317
323.56	4.29943
323.775	4.14899
323.989	3.53314
324.204	3.48863
324.419	4.45409
324.634	2.31878
324.849	3.26002
325.064	6.57442
325.279	4.32418
325.493	3.82333
325.708	4.17498
325.923	2.72493
326.138	3.01488
326.352	4.8875
326.567	4.26108
326.782	3.02587
326.997	2.83857
327.211	4.05872
327.426	3.59698
327.641	3.02044
327.855	1.99107
328.07	3.87119
328.285	5.05299
328.499	3.04704
328.714	3.65442
328.928	3.94085
329.143	3.21368
329.358	4.44035
329.572	4.19807
329.787	4.68481
330.001	5.76537
330.216	2.27573
330.43	5.32359
330.645	4.76244
330.859	4.30327
331.074	2.73416
331.288	3.49172
331.503	4.83535
331.717	2.54698
331.931	3.64958
332.146	3.51795
332.36	5.09884
332.575	3.73033
332.789	3.6911
333.003	3.71481
333.218	4.06243
333.432	2.77132
333.646	4.39425
333.86	5.12263
334.075	4.95862
334.289	3.03606
334.503	2.47456
334.717	4.07948
334.932	3.86903
335.146	4.41633
335.36	3.02582
335.574	3.98829
335.788	3.83664
336.003	4.458
336.217	4.09329
336.431	3.85127
336.645	3.00392
336.859	2.4608
337.073	3.4296
337.287	3.84881
337.501	2.50589
337.715	3.92118
337.929	4.27184
338.143	2.54408
338.357	3.42062
338.571	2.95284
338.785	4.09934
338.999	3.06542
339.213	3.04547
339.427	2.19664
339.641	4.7087
339.855	3.16308
340.069	2.76612
340.283	4.3336
340.497	5.13313
340.711	3.79839
340.924	3.39977
341.138	2.5947
341.352	2.42363
341.566	3.68866
341.78	2.17369
341.993	3.16611
342.207	2.65094
342.421	3.71305
342.635	3.35974
342.848	3.10574
343.062	1.6679
343.276	2.94701
343.49	5.19529
343.703	2.8745
343.917	4.4244
344.131	4.43425
344.344	2.76565
344.558	3.07481
344.771	2.31642
344.985	4.78403
345.199	4.84146
345.412	3.74503
345.626	3.87104
345.839	2.13673
346.053	2.57116
346.266	2.64187
346.48	4.07452
346.693	3.7549
346.907	3.573
347.12	2.66816
347.334	3.73268
347.547	3.77472
347.76	3.32322
347.974	4.38842
348.187	3.58866
348.401	3.01454
348.614	2.82037
348.827	3.11257
349.041	3.77241
349.254	2.06882
349.467	2.99455
349.681	2.37555
349.894	2.69805
350.107	4.37584
350.32	5.01897
350.534	2.26383
350.747	3.09395
350.96	2.64567
351.173	2.89753
351.386	3.08686
351.6	2.95752
351.813	2.93917
352.026	3.06271
352.239	2.38973
352.452	3.00552
352.665	4.28911
352.878	3.31759
353.092	4.94789
353.305	3.99318
353.518	3.41267
353.731	2.54823
353.944	4.21664
354.157	2.89372
354.37	2.73644
354.583	2.47909
354.796	2.17585
355.009	4.17092
355.222	3.5317
355.435	3.39905
355.647	4.17164
355.86	2.68694
356.073	3.38484
356.286	2.89138
356.499	3.93995
356.712	3.68951
356.925	3.76769
357.138	3.94537
357.35	2.62024
357.563	3.06434
357.776	3.35999
357.989	3.11445
358.201	3.72131
358.414	3.55074
358.627	4.41099
358.84	3.19123
359.052	2.36678
359.265	2.76436
359.478	4.08219
359.69	1.3333
359.903	3.81309
360.116	4.05952
360.328	2.07354
360.541	3.89617
360.753	2.66884
360.966	3.06193
361.179	3.12326
361.391	2.9175
361.604	2.82918
361.816	3.06672
362.029	2.90856
362.241	2.73232
362.454	3.02169
362.666	2.65684
362.879	3.59983
363.091	3.00256
363.304	2.81644
363.516	3.19665
363.728	2.49705
363.941	3.68003
364.153	3.11618
364.366	1.79602
364.578	2.40981
364.79	3.39657
365.003	3.19792
365.215	2.75638
365.427	3.66619
365.639	3.9419
365.852	3.23958
366.064	4.8061
366.276	3.03938
366.488	3.47666
366.701	2.97118
366.913	3.04075
367.125	3.0023
367.337	2.63776
367.549	2.74386
367.762	3.29131
367.974	3.06899
368.186	2.82153
368.398	3.84326
368.61	3.65196
368.822	3.64351
369.034	3.11628
369.246	3.71025
369.458	5.37789
369.67	2.6765
369.882	4.53212
370.094	1.86985
370.306	4.31599
370.518	2.98576
370.73	2.63157
370.942	2.71537
371.154	3.11857
371.366	2.81448
371.578	3.43386
371.79	2.85069
372.002	4.01843
372.214	4.59922
372.425	3.18414
372.637	4.19716
372.849	3.39829
373.061	1.75345
373.273	3.46361
373.484	3.38306
373.696	3.82355
373.908	1.85639
374.12	3.92531
374.331	3.44281
374.543	2.65671
374.755	2.55844
374.967	3.27069
375.178	3.73521
375.39	2.94635
375.602	3.26419
375.813	2.14876
376.025	2.57585
376.236	3.24848
376.448	3.44684
376.66	2.86947
376.871	2.89351
377.083	4.0795
377.294	4.31892
377.506	2.91324
377.717	4.20628
377.929	3.36486
378.14	2.81151
378.352	3.43497
378.563	3.5373
378.775	4.2167
378.986	2.50474
379.197	3.20384
379.409	2.71182
379.62	3.69829
379.832	3.50845
380.043	3.06791
380.254	3.14486
380.466	2.38915
380.677	5.27118
380.888	4.55654
381.1	4.92966
381.311	4.94143
381.522	3.30445
381.733	5.19843
381.945	3.08717
382.156	3.23203
382.367	2.79544
382.578	5.13433
382.789	5.15181
383.001	2.81256
383.212	4.28548
383.423	4.38709
383.634	4.05671
383.845	3.70012
384.056	3.06312
384.267	3.31932
384.478	3.25806
384.69	2.54791
384.901	3.54213
385.112	3.51273
385.323	4.40751
385.534	3.62047
385.745	3.458
385.956	3.4452
386.167	2.7059
386.378	3.69335
386.588	2.71714
386.799	2.78667
387.01	2.26751
387.221	3.8195
387.432	3.28584
387.643	4.48099
387.854	3.1675
388.065	3.0353
388.275	3.25415
388.486	3.00626
388.697	3.18561
388.908	2.88624
389.119	4.06948
389.329	4.26375
389.54	3.23162
389.751	3.54785
389.962	4.17377
390.172	3.43792
390.383	3.09033
390.594	2.88427
390.804	2.89004
391.015	2.86102
391.226	3.35836
391.436	3.7019
391.647	3.61088
391.858	3.7354
392.068	2.2933
392.279	2.62447
392.489	3.41247
392.7	4.06372
392.91	2.70238
393.121	2.84104
393.331	3.60831
393.542	4.06076
393.752	3.75345
393.963	3.66714
394.173	3.52318
394.384	3.69744
394.594	3.38155
394.804	2.72215
395.015	3.47814
395.225	3.67967
395.436	2.70954
395.646	3.61901
395.856	2.99445
396.067	2.48139
396.277	3.8839
396.487	3.71974
396.697	3.68258
396.908	3.67563
397.118	3.70324
397.328	3.57443
397.538	3.98661
397.749	2.81313
397.959	3.87979
398.169	3.76915
398.379	2.50551
398.589	3.8072
398.8	3.50808
399.01	3.38386
399.22	3.16022
399.43	4.87393
399.64	3.25926
399.85	3.90225
400.06	3.39576
400.27	2.82045
400.48	3.28294
400.69	4.51607
400.9	3.15182
401.11	2.7938
401.32	3.92738
401.53	3.26716
401.74	4.52582
401.95	3.81758
402.16	2.93551
402.37	3.63121
402.58	3.14947
402.79	3.90765
403	4.15334
403.209	3.13548
403.419	4.10487
403.629	3.04098
403.839	4.03304
404.049	3.96386
404.258	3.17745
404.468	3.04464
404.678	3.72466
404.888	4.22841
405.097	3.19982
405.307	3.43398
405.517	3.86985
405.727	3.81271
405.936	3.2708
406.146	3.74613
406.356	4.37076
406.565	3.50404
406.775	3.22542
406.984	3.36197
407.194	4.6499
407.404	3.64958
407.613	3.86607
407.823	4.00491
408.032	4.34403
408.242	4.30578
408.451	3.26693
408.661	3.57943
408.87	4.80508
409.08	3.24142
409.289	3.86546
409.499	3.79168
409.708	3.83175
409.918	2.48989
410.127	3.7482
410.336	4.70097
410.546	4.13742
410.755	3.47224
410.964	3.55528
411.174	3.20944
411.383	3.97224
411.592	3.99906
411.802	3.26436
412.011	4.26572
412.22	3.61365
412.429	4.9692
412.639	4.72959
412.848	4.40042
413.057	4.66004
413.266	4.74577
413.475	3.8672
413.685	4.16385
413.894	4.47254
414.103	4.63055
414.312	4.41401
414.521	3.75036
414.73	3.87433
414.939	5.31643
415.148	4.35124
415.357	4.151
415.566	3.88605
415.776	3.81611
415.985	3.82497
416.194	4.57675
416.403	5.18132
416.611	3.31895
416.82	3.832
417.029	4.19603
417.238	3.78673
417.447	3.63764
417.656	4.03086
417.865	3.74816
418.074	4.1039
418.283	4.20735
418.492	4.79673
418.7	4.5735
418.909	5.4089
419.118	4.5932
419.327	4.86113
419.536	4.6806
419.744	4.55097
419.953	5.63062
420.162	5.80088
420.371	5.02299
420.579	5.20474
420.788	6.15944
420.997	6.17459
421.205	6.36386
421.414	6.15399
421.623	6.1737
421.831	5.84491
422.04	6.40086
422.249	5.60152
422.457	6.1062
422.666	5.45121
422.874	6.28432
423.083	6.26012
423.291	6.32346
423.5	6.02457
423.708	6.25742
423.917	6.70163
424.125	6.31414
424.334	6.14342
424.542	7.66536
424.751	7.19214
424.959	6.86671
425.167	7.03814
425.376	6.92199
425.584	6.05222
425.793	6.16032
426.001	5.39458
426.209	5.75712
426.418	4.90622
426.626	4.79401
426.834	4.68618
427.042	4.98979
