Data from WindowProjectSample_Transmission__39__00039__023490432460145094.txt Node

Date: Mon May 05 17:51:44 EDT 2025
User: jessi
Spectrometer: SR400872
Trigger mode: 0
Integration Time (sec): 5.000010E-1
Scans to average: 20
Electric dark correction enabled: true
Nonlinearity correction enabled: true
Boxcar width: 0
XAxis mode: Wavelengths
Number of Pixels in Spectrum: 3648
>>>>>Begin Spectral Data<<<<<
184.909	21440.9475
185.132	-5284.33216
185.355	-3162.98554
185.578	-18575.36069
185.801	1283.2832
186.024	10676.46863
186.247	-2064.60966
186.47	1199.11148
186.693	349.2426
186.916	306.97251
187.139	-3786.17883
187.362	3661.92553
187.585	4311.41418
187.808	3688.13448
188.031	35.89723
188.254	-54873.23936
188.476	-601.43981
188.699	6501.75132
188.922	552.82259
189.145	-16250.74555
189.368	-623.96007
189.591	-1355.46211
189.813	3147.48154
190.036	-52138.47463
190.259	-903.0999
190.482	-4883.62825
190.705	7387.49941
190.927	-2553.04928
191.15	13417.15016
191.373	3298.31097
191.595	-9402.91254
191.818	-4205.47712
192.041	-5853.95599
192.263	-3442.97558
192.486	-722.60985
192.709	-4022.22567
192.931	8281.87874
193.154	-28662.89559
193.377	-2935.19835
193.599	-2808.30469
193.822	-9360.54002
194.044	-1931.36354
194.267	1318.64832
194.489	273.41052
194.712	-45040.70841
194.934	-33448.46336
195.157	1312.79468
195.379	1463.42554
195.602	-7217.28206
195.824	-1354.02133
196.047	-8995.15812
196.269	2797.43676
196.492	-6625.33496
196.714	29634.31811
196.936	-8667.55073
197.159	-1221.43533
197.381	1262.24377
197.604	368.53138
197.826	12513.13295
198.048	-11671.29412
198.271	-2904.54258
198.493	7705.12613
198.715	2353.56355
198.938	-465.89892
199.16	7071.00247
199.382	-107348.10866
199.604	2998.64468
199.827	-1139.3251
200.049	-3183.50145
200.271	14881.99978
200.493	1242.19041
200.715	-39566.04171
200.938	-6372.04392
201.16	-4342.58434
201.382	21290.82825
201.604	2337.79408
201.826	2501.04404
202.048	-1988.82156
202.27	-1918.38579
202.492	-37328.65026
202.715	2990.1155
202.937	-4481.5054
203.159	-6310.84129
203.381	1473.56519
203.603	7069.54691
203.825	7107.38336
204.047	2122.87383
204.269	-2893.83471
204.491	2191.51254
204.713	5921.81966
204.935	-511294.05132
205.156	1275.77369
205.378	-3070.06128
205.6	1650.6378
205.822	158992.18576
206.044	-970.11392
206.266	1576.40744
206.488	4826.14059
206.71	-5337.5302
206.932	1105.80206
207.153	12329.61562
207.375	-7226.86366
207.597	-39169.70009
207.819	-2942.53999
208.041	2588.77695
208.262	471.05668
208.484	758.46672
208.706	-792.63777
208.927	-818.74166
209.149	596.15293
209.371	-3134.49844
209.593	-354.38833
209.814	-864.87697
210.036	581.8866
210.258	-615.77077
210.479	1789.75427
210.701	1596.82709
210.922	3315.78696
211.144	-4128.49804
211.366	2092.28333
211.587	8010.33529
211.809	-8715.82466
212.03	2508.9527
212.252	493.78883
212.473	2167.71716
212.695	-5695.07007
212.916	2970.83611
213.138	-663.8907
213.359	3771.43324
213.581	5611.29195
213.802	-776.13361
214.024	1170.25935
214.245	2081.61905
214.466	2792.03413
214.688	-3226.14294
214.909	-1345.70403
215.131	-1831.62198
215.352	-3171.55152
215.573	15353.52162
215.795	5182.12686
216.016	5582.3034
216.237	863.52039
216.459	3824.70101
216.68	1856.49857
216.901	5332.66784
217.122	-3064.50249
217.344	-11849.00778
217.565	3400.34498
217.786	9106.58354
218.007	17533.44466
218.228	-792.38264
218.45	6075.22819
218.671	806.92538
218.892	39958.54354
219.113	1533.11999
219.334	-439.58291
219.555	9027.1143
219.776	3225.23411
219.997	22675.89583
220.219	2805.8143
220.44	-11346.75612
220.661	458.00534
220.882	1528.62314
221.103	-1231.77654
221.324	2329.17915
221.545	2400.77101
221.766	-9421.53652
221.987	1008.77999
222.208	1735.2913
222.429	4375.70773
222.65	175.5303
222.87	19181.66372
223.091	770.11892
223.312	578.03084
223.533	1464.65871
223.754	1533.71436
223.975	1342.16487
224.196	2120.64658
224.417	1389.04695
224.637	580.83587
224.858	109.02406
225.079	1137.65077
225.3	678.88032
225.521	3840.46102
225.741	458.51632
225.962	527.01896
226.183	149.93205
226.404	696.69279
226.624	445.88112
226.845	679.71035
227.066	418.10829
227.286	256.80032
227.507	132.99988
227.728	120.59843
227.948	249.3714
228.169	76.33961
228.389	89.89569
228.61	49.50491
228.831	68.22298
229.051	2.13762
229.272	39.24993
229.492	57.50216
229.713	13.84253
229.933	37.95188
230.154	33.78407
230.374	54.49275
230.595	39.26301
230.815	23.5963
231.036	39.74098
231.256	-9.31253
231.477	72.70765
231.697	38.40404
231.917	41.33136
232.138	56.69318
232.358	109.20345
232.579	106.54337
232.799	17.57845
233.019	103.66967
233.24	116.35298
233.46	37.12191
233.68	62.86983
233.901	42.92125
234.121	28.85078
234.341	10.31822
234.561	-6.08171
234.782	20.45154
235.002	70.17111
235.222	-4.85315
235.442	66.54266
235.662	32.37358
235.883	63.10713
236.103	52.95131
236.323	39.64478
236.543	29.37612
236.763	42.94796
236.983	44.37641
237.203	40.02287
237.423	62.26707
237.643	91.89068
237.864	77.67457
238.084	18.65447
238.304	27.71358
238.524	48.27936
238.744	39.63924
238.964	77.5504
239.184	64.09739
239.404	66.59462
239.624	37.66309
239.843	65.16498
240.063	36.857
240.283	22.42327
240.503	26.32326
240.723	26.15973
240.943	14.8092
241.163	19.86859
241.383	14.76512
241.603	7.87145
241.822	9.58097
242.042	6.12481
242.262	8.53753
242.482	9.83867
242.702	10.76779
242.921	2.87752
243.141	6.73328
243.361	6.56993
243.581	9.73245
243.8	7.87461
244.02	5.3982
244.24	9.3787
244.459	9.76472
244.679	18.02749
244.899	11.77959
245.118	13.03839
245.338	12.51168
245.558	14.16109
245.777	9.42546
245.997	10.72898
246.216	10.9696
246.436	6.70617
246.655	4.9085
246.875	3.46857
247.094	6.30728
247.314	2.23161
247.533	3.76378
247.753	4.47912
247.972	3.64588
248.192	1.18866
248.411	1.95993
248.631	3.55908
248.85	4.6903
249.07	4.09218
249.289	6.091
249.508	5.32377
249.728	7.64069
249.947	7.24671
250.166	8.77024
250.386	4.16728
250.605	7.13109
250.824	11.36862
251.044	7.92271
251.263	29.65058
251.482	14.75667
251.701	12.25479
251.921	-0.04263
252.14	3.94497
252.359	4.07614
252.578	10.55544
252.798	3.64975
253.017	9.27511
253.236	3.96931
253.455	6.01435
253.674	10.45301
253.893	4.96207
254.112	7.6684
254.331	11.73033
254.551	9.65885
254.77	3.99418
254.989	13.58943
255.208	9.44845
255.427	15.62884
255.646	11.97931
255.865	22.32002
256.084	8.92824
256.303	10.634
256.522	14.25886
256.741	2.92285
256.96	2.96055
257.179	8.16583
257.397	11.51356
257.616	5.64885
257.835	6.17509
258.054	15.34003
258.273	11.28507
258.492	11.39091
258.711	6.7456
258.93	3.2927
259.148	4.82792
259.367	4.85507
259.586	5.81116
259.805	2.4148
260.023	5.41804
260.242	4.04981
260.461	2.81965
260.68	1.20791
260.898	4.44889
261.117	1.4566
261.336	0.87836
261.554	3.63194
261.773	3.61295
261.992	0.82557
262.21	3.51599
262.429	3.56463
262.648	7.61906
262.866	8.64764
263.085	5.94709
263.303	5.4363
263.522	8.85894
263.74	9.13447
263.959	16.17834
264.178	7.22449
264.396	6.63435
264.615	5.08228
264.833	11.10517
265.051	9.24449
265.27	10.93663
265.488	11.55814
265.707	6.30866
265.925	11.1765
266.144	4.82501
266.362	6.12403
266.58	5.62352
266.799	5.12999
267.017	6.14705
267.235	5.56806
267.454	3.39946
267.672	1.95575
267.89	4.41886
268.109	4.71477
268.327	4.4789
268.545	1.03921
268.763	3.88749
268.982	1.55983
269.2	4.37232
269.418	3.49359
269.636	1.90099
269.854	4.75749
270.073	3.14319
270.291	2.17327
270.509	1.88848
270.727	4.29784
270.945	7.50227
271.163	7.51883
271.381	1.48654
271.599	3.11944
271.817	5.50981
272.036	1.78346
272.254	3.24987
272.472	2.39566
272.69	2.50947
272.908	2.31781
273.126	4.66067
273.344	5.49522
273.562	1.86489
273.779	2.68199
273.997	3.99531
274.215	4.24304
274.433	2.82284
274.651	4.62642
274.869	4.94024
275.087	2.96766
275.305	4.23701
275.523	2.71964
275.74	3.09573
275.958	5.82487
276.176	8.58596
276.394	2.66948
276.612	3.39214
276.829	3.23571
277.047	2.70634
277.265	3.15495
277.483	3.69109
277.7	4.36932
277.918	3.49055
278.136	6.56314
278.353	2.82958
278.571	1.89831
278.789	4.49508
279.006	0.97258
279.224	2.96833
279.442	5.34662
279.659	3.81148
279.877	2.33106
280.094	5.93474
280.312	1.03066
280.529	3.519
280.747	0.88893
280.964	2.72648
281.182	6.14603
281.399	2.73322
281.617	4.09837
281.834	2.68451
282.052	2.0044
282.269	3.2437
282.487	2.71982
282.704	2.08265
282.921	2.3113
283.139	3.51
283.356	4.11502
283.574	3.96621
283.791	1.88157
284.008	5.84776
284.226	3.03972
284.443	3.26256
284.66	4.59129
284.877	3.56913
285.095	2.0734
285.312	1.624
285.529	0.8847
285.746	0.7604
285.964	2.09882
286.181	1.44677
286.398	1.95989
286.615	2.77527
286.832	2.54693
287.05	0.58899
287.267	1.94465
287.484	1.81504
287.701	2.61382
287.918	2.60626
288.135	2.66647
288.352	1.3646
288.569	1.43239
288.786	2.47336
289.003	2.14933
289.22	3.24379
289.437	1.67054
289.654	2.94108
289.871	3.11648
290.088	3.099
290.305	2.4035
290.522	1.83782
290.739	2.07094
290.956	3.20402
291.173	3.66171
291.39	3.57551
291.607	2.4151
291.824	1.7872
292.04	1.21572
292.257	2.97243
292.474	3.30804
292.691	1.9784
292.908	0.90405
293.125	1.69695
293.341	1.17106
293.558	5.0582
293.775	2.06357
293.992	1.96522
294.208	0.88945
294.425	1.27313
294.642	1.89486
294.858	2.59963
295.075	0.56756
295.292	2.01041
295.508	2.44227
295.725	4.14773
295.942	1.69576
296.158	1.25542
296.375	2.1149
296.591	1.59259
296.808	1.73192
297.024	2.07734
297.241	2.26784
297.458	2.50932
297.674	0.16338
297.891	1.87321
298.107	1.47363
298.323	1.23192
298.54	3.25241
298.756	1.43009
298.973	0.58457
299.189	3.34496
299.406	1.2811
299.622	2.89845
299.838	2.8876
300.055	2.78484
300.271	0.6545
300.487	1.01881
300.704	1.28507
300.92	0.7534
301.136	4.48809
301.353	2.80881
301.569	1.99628
301.785	2.3403
302.001	2.80195
302.218	2.38987
302.434	2.51496
302.65	0.83761
302.866	1.70251
303.083	4.24452
303.299	4.07249
303.515	2.18767
303.731	2.32195
303.947	0.86694
304.163	1.40878
304.379	2.36604
304.595	2.54309
304.812	1.49793
305.028	1.36819
305.244	1.83294
305.46	2.87408
305.676	2.88294
305.892	3.37185
306.108	2.56101
306.324	1.79281
306.54	3.92059
306.756	2.69889
306.972	2.52384
307.187	1.98613
307.403	3.59018
307.619	1.73642
307.835	3.37634
308.051	3.71787
308.267	1.21631
308.483	3.25247
308.699	2.68583
308.914	2.28588
309.13	2.05387
309.346	0.86956
309.562	1.22465
309.778	0.9152
309.993	2.77918
310.209	2.23305
310.425	1.16999
310.641	1.92399
310.856	1.29023
311.072	1.12731
311.288	2.03859
311.503	2.31933
311.719	0.54095
311.935	0.60607
312.15	2.6423
312.366	2.13225
312.581	2.61501
312.797	2.07886
313.013	2.91632
313.228	1.64162
313.444	2.02718
313.659	1.69821
313.875	2.76044
314.09	2.20202
314.306	3.44224
314.521	2.8904
314.737	2.9067
314.952	2.18833
315.168	2.12119
315.383	2.72972
315.599	1.9893
315.814	1.97612
316.029	2.83902
316.245	1.25518
316.46	0.7001
316.675	3.46705
316.891	3.90146
317.106	5.02349
317.321	2.57237
317.537	2.85326
317.752	3.20717
317.967	3.14581
318.183	1.46039
318.398	1.89924
318.613	3.07858
318.828	3.72743
319.043	3.07482
319.259	2.16189
319.474	2.65067
319.689	3.55142
319.904	0.8637
320.119	3.16985
320.334	2.67599
320.549	2.22816
320.765	3.3116
320.98	2.74886
321.195	2.9594
321.41	2.24221
321.625	3.09653
321.84	4.05537
322.055	3.98661
322.27	1.66835
322.485	1.41251
322.7	2.66036
322.915	3.30196
323.13	1.74913
323.345	4.03956
323.56	3.38376
323.775	3.02666
323.989	2.81509
324.204	2.6176
324.419	3.49776
324.634	1.26484
324.849	2.37105
325.064	5.53674
325.279	3.30423
325.493	2.82834
325.708	3.30663
325.923	1.8876
326.138	1.84483
326.352	3.99218
326.567	3.37689
326.782	1.99278
326.997	1.93944
327.211	3.0879
327.426	2.81031
327.641	2.17416
327.855	1.15989
328.07	2.96286
328.285	4.03717
328.499	2.07
328.714	2.80769
328.928	3.23318
329.143	2.3567
329.358	3.6268
329.572	3.52747
329.787	3.82881
330.001	4.89396
330.216	1.45505
330.43	4.43592
330.645	4.13462
330.859	3.38667
331.074	1.91113
331.288	2.78767
331.503	3.95522
331.717	1.63366
331.931	2.74776
332.146	2.90294
332.36	4.35011
332.575	3.04292
332.789	2.90135
333.003	2.77428
333.218	3.17405
333.432	2.0233
333.646	3.46471
333.86	4.31954
334.075	4.19019
334.289	2.30077
334.503	1.73885
334.717	3.20526
334.932	2.99132
335.146	3.58747
335.36	2.31293
335.574	3.34339
335.788	3.0039
336.003	3.67436
336.217	3.35715
336.431	3.23607
336.645	2.2781
336.859	1.6445
337.073	2.5655
337.287	2.93346
337.501	1.64921
337.715	3.04378
337.929	3.4605
338.143	1.68015
338.357	2.55581
338.571	1.97189
338.785	3.29372
338.999	2.30393
339.213	2.26877
339.427	1.5359
339.641	3.96641
339.855	2.3551
340.069	2.20455
340.283	3.4914
340.497	4.47171
340.711	3.07231
340.924	2.65194
341.138	1.84027
341.352	1.64322
341.566	2.94368
341.78	1.53944
341.993	2.30005
342.207	1.9927
342.421	2.95686
342.635	2.58011
342.848	2.35083
343.062	0.75133
343.276	2.13776
343.49	4.54348
343.703	2.15405
343.917	3.6478
344.131	3.70961
344.344	2.04767
344.558	2.39198
344.771	1.72432
344.985	4.10597
345.199	4.10227
345.412	2.97845
345.626	3.07523
345.839	1.33267
346.053	1.78602
346.266	1.9125
346.48	3.2894
346.693	3.06948
346.907	3.02502
347.12	1.85626
347.334	2.97103
347.547	3.05514
347.76	2.61677
347.974	3.73347
348.187	3.05159
348.401	2.53897
348.614	2.08461
348.827	2.42846
349.041	3.19067
349.254	1.26284
349.467	2.48707
349.681	1.76255
349.894	2.1985
350.107	3.75773
350.32	4.41241
350.534	1.53919
350.747	2.43803
350.96	2.10262
351.173	2.20547
351.386	2.40132
351.6	2.36487
351.813	2.404
352.026	2.57088
352.239	1.71873
352.452	2.17999
352.665	3.60045
352.878	2.68066
353.092	4.52477
353.305	3.50203
353.518	2.8974
353.731	1.99586
353.944	3.66893
354.157	2.48241
354.37	2.16992
354.583	1.92646
354.796	1.40465
355.009	3.44941
355.222	3.05332
355.435	2.74818
355.647	3.5578
355.86	2.1051
356.073	2.87051
356.286	2.3652
356.499	3.45679
356.712	3.08005
356.925	3.25958
357.138	3.45199
357.35	2.0054
357.563	2.50298
357.776	2.852
357.989	2.5957
358.201	3.15365
358.414	2.984
358.627	3.76097
358.84	2.63687
359.052	1.78993
359.265	2.09842
359.478	3.61066
359.69	0.8862
359.903	3.32028
360.116	3.65622
360.328	1.53862
360.541	3.47443
360.753	2.11998
360.966	2.51446
361.179	2.64692
361.391	2.51088
361.604	2.22638
361.816	2.54796
362.029	2.3836
362.241	2.22821
362.454	2.46996
362.666	2.19399
362.879	3.09673
363.091	2.51106
363.304	2.34987
363.516	2.67239
363.728	1.95496
363.941	3.2958
364.153	2.66529
364.366	1.33987
364.578	1.98846
364.79	3.0117
365.003	2.7993
365.215	2.31538
365.427	3.18181
365.639	3.61761
365.852	2.91228
366.064	4.57436
366.276	2.60842
366.488	3.11163
366.701	2.56789
366.913	2.79405
367.125	2.68101
367.337	2.29029
367.549	2.40732
367.762	2.88171
367.974	2.8874
368.186	2.48459
368.398	3.59567
368.61	3.25091
368.822	3.39399
369.034	2.77619
369.246	3.467
369.458	5.28068
369.67	2.28434
369.882	4.35193
370.094	1.60428
370.306	4.28461
370.518	2.76105
370.73	2.53205
370.942	2.52008
371.154	2.90608
371.366	2.62202
371.578	3.29456
371.79	2.66298
372.002	3.87512
372.214	4.56352
372.425	3.03417
372.637	4.12712
372.849	3.41083
373.061	1.73646
373.273	3.4385
373.484	3.33864
373.696	3.80939
373.908	1.54815
374.12	3.95828
374.331	3.45335
374.543	2.58876
374.755	2.51202
374.967	3.21378
375.178	3.77795
375.39	2.88592
375.602	3.26896
375.813	2.2778
376.025	2.48979
376.236	3.34155
376.448	3.45668
376.66	3.04714
376.871	3.02282
377.083	4.1812
377.294	4.525
377.506	2.95004
377.717	4.35547
377.929	3.52464
378.14	3.0676
378.352	3.65916
378.563	3.66586
378.775	4.43137
378.986	2.73706
379.197	3.705
379.409	2.94089
379.62	3.93033
379.832	3.86119
380.043	3.36712
380.254	3.56242
380.466	2.73189
380.677	5.67506
380.888	5.01652
381.1	5.43805
381.311	5.08035
381.522	3.79189
381.733	5.64391
381.945	3.55351
382.156	3.65711
382.367	3.36981
382.578	5.7534
382.789	5.67857
383.001	3.33477
383.212	4.87338
383.423	4.91583
383.634	4.69521
383.845	4.35119
384.056	3.67089
384.267	4.02854
384.478	3.83383
384.69	3.21634
384.901	4.26252
385.112	4.14311
385.323	5.12548
385.534	4.33548
385.745	4.32214
385.956	4.34481
386.167	3.51062
386.378	4.50618
386.588	3.53592
386.799	3.68391
387.01	3.13061
387.221	4.78441
387.432	4.13013
387.643	5.42933
387.854	4.03731
388.065	4.03863
388.275	4.18752
388.486	3.94077
388.697	4.16484
388.908	3.95836
389.119	5.1468
389.329	5.35708
389.54	4.40226
389.751	4.64941
389.962	5.34788
390.172	4.59138
390.383	4.20715
390.594	4.02601
390.804	4.07638
391.015	4.15491
391.226	4.73843
391.436	5.0042
391.647	4.93871
391.858	5.16302
392.068	3.76209
392.279	4.0812
392.489	4.90283
392.7	5.45288
392.91	4.34318
393.121	4.35018
393.331	5.17365
393.542	5.62682
393.752	5.08366
393.963	5.29922
394.173	5.15719
394.384	5.37484
394.594	5.07027
394.804	4.40175
395.015	5.19214
395.225	5.46879
395.436	4.51028
395.646	5.39076
395.856	4.83142
396.067	4.24593
396.277	5.75288
396.487	5.42444
396.697	5.47163
396.908	5.6361
397.118	5.47954
397.328	5.38117
397.538	6.00243
397.749	4.82881
397.959	5.83491
398.169	5.71353
398.379	4.51111
398.589	5.84272
398.8	5.54422
399.01	5.51432
399.22	5.1706
399.43	6.92585
399.64	5.50792
399.85	5.95773
400.06	5.66926
400.27	5.03686
400.48	5.55515
400.69	6.64702
400.9	5.27835
401.11	4.97302
401.32	6.05802
401.53	5.36986
401.74	6.84621
401.95	6.04133
402.16	5.32815
402.37	6.01173
402.58	5.54432
402.79	6.35666
403	6.54096
403.209	5.47637
403.419	6.63786
403.629	5.37146
403.839	6.69734
404.049	6.56255
404.258	5.75807
404.468	5.67971
404.678	6.45815
404.888	6.94896
405.097	6.02859
405.307	6.13436
405.517	6.75183
405.727	6.56275
405.936	6.02802
406.146	6.53632
406.356	7.18668
406.565	6.34364
406.775	6.15421
406.984	6.15107
407.194	7.55045
407.404	6.38572
407.613	6.88487
407.823	6.92187
408.032	7.11578
408.242	7.09681
408.451	6.05888
408.661	6.32087
408.87	7.6516
409.08	6.12077
409.289	6.81318
409.499	6.80734
409.708	6.7345
409.918	5.45673
410.127	6.78901
410.336	7.61628
410.546	7.23099
410.755	6.48142
410.964	6.65859
411.174	6.31186
411.383	7.12237
411.592	7.06389
411.802	6.20959
412.011	7.31804
412.22	6.77469
412.429	7.96935
412.639	7.95237
412.848	7.46518
413.057	7.73009
413.266	7.66526
413.475	6.99624
413.685	7.33423
413.894	7.62497
414.103	7.77197
414.312	7.58855
414.521	6.93365
414.73	7.25734
414.939	8.50021
415.148	7.61609
415.357	7.43611
415.566	7.1406
415.776	7.12903
415.985	7.22871
416.194	7.97335
416.403	8.63287
416.611	6.66363
416.82	7.28114
417.029	7.66704
417.238	7.27769
417.447	7.18771
417.656	7.57402
417.865	7.38674
418.074	7.65174
418.283	7.7613
418.492	8.41368
418.7	8.26763
418.909	9.22357
419.118	8.37787
419.327	8.77277
419.536	8.65478
419.744	8.62528
419.953	9.84478
420.162	10.03225
420.371	9.49882
420.579	9.97327
420.788	10.81971
420.997	10.95832
421.205	11.21288
421.414	11.03725
421.623	11.16062
421.831	10.74895
422.04	11.38176
422.249	10.46551
422.457	10.90311
422.666	10.13318
422.874	10.92955
423.083	10.93042
423.291	10.92338
423.5	10.73122
423.708	11.21456
423.917	11.59106
424.125	11.17861
424.334	11.12309
424.542	12.67414
424.751	12.21852
424.959	11.8325
425.167	11.91835
425.376	11.87552
425.584	10.73284
425.793	10.6118
426.001	9.81563
426.209	9.88521
426.418	8.86671
426.626	8.63206
426.834	8.37114
