Data from WindowProjectSample_Transmission__15__00015__06457543871839371.txt Node

Date: Mon May 05 17:03:09 EDT 2025
User: jessi
Spectrometer: SR400872
Trigger mode: 0
Integration Time (sec): 5.000010E-1
Scans to average: 20
Electric dark correction enabled: true
Nonlinearity correction enabled: true
Boxcar width: 0
XAxis mode: Wavelengths
Number of Pixels in Spectrum: 3648
>>>>>Begin Spectral Data<<<<<
184.909	20790.67922
185.132	-5184.89069
185.355	-3096.08469
185.578	-18431.00409
185.801	1275.33625
186.024	10327.00885
186.247	-1853.57807
186.47	1166.39321
186.693	217.22573
186.916	275.28829
187.139	-3801.43188
187.362	3394.57682
187.585	4083.82534
187.808	3689.495
188.031	-28.9048
188.254	-59842.47567
188.476	-1729.18353
188.699	6305.09831
188.922	640.59896
189.145	-15154.41287
189.368	-714.82263
189.591	-1508.31629
189.813	3008.77073
190.036	-50570.52529
190.259	-905.61132
190.482	-4497.37662
190.705	7134.1589
190.927	-2361.55952
191.15	13352.21306
191.373	3213.47454
191.595	-8797.98133
191.818	-4203.5554
192.041	-6066.78861
192.263	-3480.86422
192.486	-1001.5166
192.709	-4018.46801
192.931	7963.57028
193.154	-28417.05352
193.377	-2838.00537
193.599	-2710.4576
193.822	-9658.92975
194.044	-1884.38143
194.267	1234.61839
194.489	267.96281
194.712	-46743.29589
194.934	-32521.01291
195.157	1193.17187
195.379	1447.9504
195.602	-6753.10857
195.824	-1299.25747
196.047	-8783.60776
196.269	2695.4012
196.492	-6921.63551
196.714	28142.70709
196.936	-8684.32068
197.159	-1206.94211
197.381	1291.04902
197.604	452.58757
197.826	12013.51765
198.048	-11043.3824
198.271	-2800.53442
198.493	7904.5784
198.715	2305.75881
198.938	-473.22083
199.16	7160.43202
199.382	-104163.86444
199.604	2834.75535
199.827	-1102.51064
200.049	-2948.37328
200.271	14083.61761
200.493	1299.8385
200.715	-39342.24174
200.938	-6145.7941
201.16	-4193.71304
201.382	22365.91154
201.604	2378.4365
201.826	2321.42486
202.048	-1854.61954
202.27	-1862.94754
202.492	-36193.29402
202.715	3137.16805
202.937	-4555.10377
203.159	-6498.00296
203.381	1541.33634
203.603	6918.68749
203.825	6779.73639
204.047	2313.95812
204.269	-3131.89655
204.491	2283.67747
204.713	6070.79515
204.935	-486123.38937
205.156	1158.51681
205.378	-3112.36006
205.6	1621.25164
205.822	156882.11219
206.044	-1151.66811
206.266	1628.09377
206.488	4246.10488
206.71	-5221.98341
206.932	1170.62751
207.153	12422.09457
207.375	-6653.41938
207.597	-38302.19923
207.819	-2820.59701
208.041	2521.17558
208.262	473.34782
208.484	704.85575
208.706	-802.71529
208.927	-826.81793
209.149	569.74762
209.371	-2917.62694
209.593	-285.10421
209.814	-809.11953
210.036	583.51776
210.258	-678.64513
210.479	1784.02712
210.701	1759.69257
210.922	3437.71231
211.144	-3989.68791
211.366	2143.85328
211.587	5394.20004
211.809	-8575.93972
212.03	2327.3119
212.252	464.22575
212.473	2162.68881
212.695	-6274.85587
212.916	2892.75284
213.138	-688.59999
213.359	3872.51408
213.581	5308.78575
213.802	-844.32252
214.024	1122.95603
214.245	2199.09722
214.466	3560.68027
214.688	-3149.73482
214.909	-1138.0548
215.131	-1749.29074
215.352	-3216.77588
215.573	14815.82146
215.795	5302.46236
216.016	5604.72228
216.237	826.68736
216.459	3813.93815
216.68	1797.3895
216.901	5024.96933
217.122	-3134.36459
217.344	-11375.6902
217.565	3330.26608
217.786	9094.40374
218.007	18340.02399
218.228	-639.18264
218.45	5662.7809
218.671	815.83022
218.892	40858.64035
219.113	1538.75296
219.334	-253.41389
219.555	9216.29902
219.776	3129.73476
219.997	22885.07226
220.219	2892.01325
220.44	-11563.16644
220.661	438.21131
220.882	1529.77479
221.103	-1112.78767
221.324	2193.34104
221.545	2272.85503
221.766	-8887.20072
221.987	979.38347
222.208	1754.75311
222.429	4152.82071
222.65	207.45197
222.87	19613.71914
223.091	748.60124
223.312	603.9554
223.533	1404.37294
223.754	1513.66362
223.975	1336.38353
224.196	2047.77534
224.417	1372.73465
224.637	672.65593
224.858	109.59584
225.079	1151.65242
225.3	647.43339
225.521	3790.96051
225.741	469.78756
225.962	513.79907
226.183	163.8646
226.404	676.52382
226.624	436.33968
226.845	623.02917
227.066	420.67651
227.286	262.97489
227.507	126.16649
227.728	112.05483
227.948	233.7382
228.169	73.70246
228.389	84.99723
228.61	47.15445
228.831	62.67666
229.051	2.70669
229.272	38.71842
229.492	55.83587
229.713	13.63607
229.933	38.01071
230.154	33.62853
230.374	54.33054
230.595	37.90492
230.815	23.89399
231.036	39.20978
231.256	-8.74237
231.477	69.73745
231.697	36.23117
231.917	40.48854
232.138	58.88069
232.358	111.74697
232.579	104.50966
232.799	16.42021
233.019	99.41758
233.24	113.29241
233.46	40.38582
233.68	66.0773
233.901	43.23254
234.121	27.9562
234.341	13.26361
234.561	-3.26154
234.782	22.43933
235.002	69.02033
235.222	-5.8559
235.442	67.47326
235.662	33.43633
235.883	61.49702
236.103	52.78382
236.323	40.86421
236.543	29.39651
236.763	38.06433
236.983	44.72267
237.203	43.54534
237.423	57.45866
237.643	88.91907
237.864	73.03563
238.084	18.70731
238.304	28.42985
238.524	45.97392
238.744	39.53854
238.964	74.69582
239.184	62.28521
239.404	65.32549
239.624	33.80488
239.843	60.10192
240.063	37.27127
240.283	20.92078
240.503	25.92345
240.723	25.43085
240.943	14.38754
241.163	19.53276
241.383	8.0054
241.603	7.70122
241.822	9.67169
242.042	6.35273
242.262	8.3877
242.482	9.78421
242.702	10.49851
242.921	3.29288
243.141	7.00624
243.361	6.10331
243.581	9.37663
243.8	7.86807
244.02	5.32689
244.24	9.48608
244.459	8.93057
244.679	17.72001
244.899	12.21661
245.118	12.88153
245.338	12.03473
245.558	14.00659
245.777	8.5153
245.997	10.50304
246.216	10.74499
246.436	6.61826
246.655	4.51963
246.875	2.92128
247.094	6.35883
247.314	1.91244
247.533	3.76992
247.753	4.29979
247.972	3.481
248.192	1.14262
248.411	1.89201
248.631	3.65235
248.85	4.74504
249.07	3.51094
249.289	5.66933
249.508	5.04938
249.728	7.6105
249.947	7.13892
250.166	8.76638
250.386	4.21284
250.605	6.70899
250.824	11.0566
251.044	7.99662
251.263	28.84277
251.482	15.02875
251.701	12.11601
251.921	-0.30783
252.14	3.33734
252.359	4.01709
252.578	10.34003
252.798	3.51152
253.017	9.47678
253.236	4.41043
253.455	5.76532
253.674	10.71897
253.893	4.70438
254.112	7.74409
254.331	11.41932
254.551	8.99634
254.77	3.63174
254.989	13.40464
255.208	9.98773
255.427	15.07044
255.646	12.47644
255.865	21.77042
256.084	9.3238
256.303	11.02444
256.522	14.22887
256.741	2.93633
256.96	2.84189
257.179	8.45097
257.397	10.68045
257.616	5.94598
257.835	5.76177
258.054	15.55475
258.273	10.64765
258.492	10.885
258.711	6.66757
258.93	3.41755
259.148	4.72963
259.367	4.62948
259.586	5.58697
259.805	2.36414
260.023	5.27604
260.242	3.88686
260.461	2.78313
260.68	1.24189
260.898	4.39959
261.117	1.38888
261.336	0.91522
261.554	3.44563
261.773	3.47959
261.992	0.81815
262.21	3.47246
262.429	3.84516
262.648	7.25707
262.866	7.9389
263.085	5.87053
263.303	5.10016
263.522	8.92977
263.74	9.02624
263.959	15.4573
264.178	7.42566
264.396	6.6634
264.615	4.58449
264.833	10.60648
265.051	8.75206
265.27	11.25574
265.488	11.18151
265.707	6.07259
265.925	10.67951
266.144	4.52149
266.362	5.85359
266.58	5.48024
266.799	5.08862
267.017	6.24842
267.235	5.43689
267.454	3.27921
267.672	1.87756
267.89	4.21146
268.109	4.53741
268.327	4.20358
268.545	1.29649
268.763	4.07918
268.982	1.60323
269.2	4.36123
269.418	3.09721
269.636	2.02449
269.854	4.7168
270.073	3.19816
270.291	2.07741
270.509	1.95393
270.727	4.48764
270.945	7.46004
271.163	7.25482
271.381	1.46214
271.599	3.25598
271.817	5.53614
272.036	1.88
272.254	3.11688
272.472	2.40134
272.69	2.67565
272.908	2.4334
273.126	4.63695
273.344	5.29553
273.562	1.57713
273.779	2.62221
273.997	3.76927
274.215	4.20406
274.433	2.91967
274.651	4.40338
274.869	4.72391
275.087	2.81487
275.305	4.05666
275.523	2.448
275.74	2.86426
275.958	5.65484
276.176	8.23696
276.394	2.57175
276.612	3.28432
276.829	3.37209
277.047	2.81997
277.265	3.00782
277.483	3.49754
277.7	4.28568
277.918	3.35526
278.136	6.40323
278.353	2.92074
278.571	1.80397
278.789	4.26384
279.006	1.02827
279.224	3.09779
279.442	5.18892
279.659	3.5993
279.877	2.63637
280.094	5.94252
280.312	1.18404
280.529	3.5853
280.747	0.89693
280.964	2.64361
281.182	6.05937
281.399	2.75764
281.617	3.89371
281.834	2.54794
282.052	1.92985
282.269	3.15496
282.487	2.47697
282.704	2.0678
282.921	2.31456
283.139	3.33131
283.356	3.95232
283.574	3.87454
283.791	1.8769
284.008	5.58131
284.226	3.1084
284.443	3.16963
284.66	4.51452
284.877	3.56504
285.095	2.08616
285.312	1.67116
285.529	0.94354
285.746	0.74783
285.964	2.13682
286.181	1.37249
286.398	1.94785
286.615	2.61561
286.832	2.62312
287.05	0.67985
287.267	1.84392
287.484	1.84714
287.701	2.65291
287.918	2.62792
288.135	2.70007
288.352	1.31207
288.569	1.286
288.786	2.45982
289.003	2.1689
289.22	3.0615
289.437	1.62279
289.654	2.83114
289.871	3.18668
290.088	2.98138
290.305	2.35054
290.522	1.72922
290.739	2.03356
290.956	3.16279
291.173	3.51745
291.39	3.49012
291.607	2.33193
291.824	1.64735
292.04	1.26623
292.257	2.94206
292.474	3.31238
292.691	1.97586
292.908	0.87219
293.125	1.7909
293.341	1.19845
293.558	4.91046
293.775	1.99846
293.992	2.26266
294.208	0.8323
294.425	1.30902
294.642	1.93517
294.858	2.83297
295.075	0.68903
295.292	1.97894
295.508	2.33665
295.725	4.24023
295.942	1.80679
296.158	1.36889
296.375	2.24627
296.591	1.79052
296.808	1.98585
297.024	2.354
297.241	2.52143
297.458	2.7989
297.674	0.61573
297.891	2.21906
298.107	2.00781
298.323	1.6072
298.54	3.70944
298.756	1.84183
298.973	1.26461
299.189	3.8116
299.406	1.96682
299.622	3.44539
299.838	3.55247
300.055	3.44679
300.271	1.5453
300.487	1.99262
300.704	2.24439
300.92	1.74622
301.136	5.24547
301.353	3.52752
301.569	2.82755
301.785	3.24685
302.001	3.72388
302.218	3.41078
302.434	3.63274
302.65	1.98193
302.866	2.69472
303.083	5.26132
303.299	5.07333
303.515	3.3136
303.731	3.6407
303.947	2.06441
304.163	2.72913
304.379	3.57247
304.595	3.85692
304.812	2.79656
305.028	2.85476
305.244	3.14574
305.46	3.9634
305.676	4.12407
305.892	4.73296
306.108	4.00854
306.324	3.27479
306.54	5.30241
306.756	4.10758
306.972	3.87903
307.187	3.5749
307.403	4.86191
307.619	3.19501
307.835	4.75321
308.051	5.07305
308.267	2.82754
308.483	4.90383
308.699	4.19478
308.914	3.76622
309.13	3.58522
309.346	2.64488
309.562	2.99532
309.778	2.67985
309.993	4.26353
310.209	4.03864
310.425	2.87364
310.641	3.92716
310.856	3.20376
311.072	3.07918
311.288	3.96323
311.503	4.23001
311.719	2.47892
311.935	2.59041
312.15	4.58969
312.366	4.18389
312.581	4.50251
312.797	4.12285
313.013	4.89003
313.228	3.55453
313.444	3.92552
313.659	3.5281
313.875	4.46361
314.09	3.94862
314.306	5.24004
314.521	4.89983
314.737	4.7891
314.952	4.03833
315.168	4.15046
315.383	4.54604
315.599	3.87469
315.814	3.90662
316.029	4.92362
316.245	3.342
316.46	2.54983
316.675	5.29935
316.891	5.70753
317.106	6.89821
317.321	4.39425
317.537	4.92301
317.752	5.07148
317.967	5.06203
318.183	3.44095
318.398	3.90225
318.613	5.07354
318.828	5.57444
319.043	4.98782
319.259	4.11485
319.474	4.40374
319.689	5.45268
319.904	2.90016
320.119	5.21592
320.334	4.48124
320.549	4.17393
320.765	5.49354
320.98	4.7866
321.195	4.8431
321.41	4.27619
321.625	5.16283
321.84	5.93921
322.055	6.01621
322.27	3.6566
322.485	3.41257
322.7	4.98682
322.915	5.20287
323.13	3.97563
323.345	6.06651
323.56	5.59782
323.775	5.30225
323.989	4.99267
324.204	4.80893
324.419	5.7627
324.634	3.62666
324.849	4.57031
325.064	7.76034
325.279	5.63912
325.493	5.11671
325.708	5.36896
325.923	4.09055
326.138	4.31531
326.352	6.21578
326.567	5.53378
326.782	4.31686
326.997	4.45624
327.211	5.20575
327.426	5.07767
327.641	4.47907
327.855	3.45649
328.07	5.30451
328.285	6.45403
328.499	4.39913
328.714	5.18101
328.928	5.25194
329.143	4.71611
329.358	5.85612
329.572	5.86486
329.787	6.1817
330.001	7.01129
330.216	3.62672
330.43	6.90276
330.645	6.07052
330.859	5.62653
331.074	4.24805
331.288	5.04212
331.503	6.20306
331.717	3.83702
331.931	5.19075
332.146	5.08492
332.36	6.7596
332.575	5.29252
332.789	5.22947
333.003	5.39441
333.218	5.49742
333.432	4.42165
333.646	5.87656
333.86	6.70968
334.075	6.48841
334.289	4.70824
334.503	4.10481
334.717	5.71242
334.932	5.36184
335.146	6.16161
335.36	4.41936
335.574	5.87807
335.788	5.41938
336.003	6.02558
336.217	5.93822
336.431	5.64627
336.645	4.75766
336.859	4.24449
337.073	5.12951
337.287	5.57485
337.501	4.08336
337.715	5.7641
337.929	6.0854
338.143	4.41083
338.357	5.12159
338.571	4.98384
338.785	6.04918
338.999	4.89787
339.213	4.88088
339.427	4.3318
339.641	6.61089
339.855	5.07482
340.069	4.71592
340.283	6.15175
340.497	6.90905
340.711	5.80439
340.924	5.40805
341.138	4.56222
341.352	4.35187
341.566	5.61749
341.78	4.05888
341.993	5.14388
342.207	4.84842
342.421	5.80449
342.635	5.33192
342.848	5.19853
343.062	3.53888
343.276	4.94394
343.49	7.09108
343.703	4.89938
343.917	6.4696
344.131	6.60332
344.344	4.87166
344.558	5.21892
344.771	4.43112
344.985	7.00416
345.199	7.07719
345.412	5.99724
345.626	6.00767
345.839	4.33726
346.053	4.71893
346.266	4.88965
346.48	6.2302
346.693	6.04381
346.907	5.84241
347.12	4.77011
347.334	5.7325
347.547	6.06378
347.76	5.60016
347.974	6.51017
348.187	5.84348
348.401	5.4944
348.614	5.00117
348.827	5.3789
349.041	5.97931
349.254	4.14696
349.467	5.22333
349.681	4.86018
349.894	4.93259
350.107	6.68216
350.32	7.33189
350.534	4.61584
350.747	5.42233
350.96	4.99367
351.173	5.2423
351.386	5.45892
351.6	5.2328
351.813	5.23493
352.026	5.46075
352.239	4.90478
352.452	5.50369
352.665	6.86443
352.878	5.68928
353.092	7.49191
353.305	6.3544
353.518	6.02029
353.731	4.99739
353.944	6.67751
354.157	5.51427
354.37	5.40771
354.583	4.89565
354.796	4.78961
355.009	6.64003
355.222	6.29586
355.435	5.89884
355.647	6.77204
355.86	5.52568
356.073	6.17846
356.286	5.66154
356.499	6.77915
356.712	6.48562
356.925	6.62915
357.138	6.78573
357.35	5.58799
357.563	5.88312
357.776	6.35475
357.989	6.20447
358.201	6.69656
358.414	6.43041
358.627	7.37664
358.84	6.1533
359.052	5.30567
359.265	5.72763
359.478	7.12486
359.69	4.40403
359.903	6.98002
360.116	7.08534
360.328	5.28088
360.541	7.09397
360.753	5.87749
360.966	6.22159
361.179	6.39582
361.391	6.18832
361.604	6.13464
361.816	6.40343
362.029	6.41181
362.241	6.10777
362.454	6.49738
362.666	6.04331
362.879	7.21814
363.091	6.51688
363.304	6.31419
363.516	6.48141
363.728	5.97813
363.941	7.02237
364.153	6.7078
364.366	5.16254
364.578	5.80037
364.79	6.77105
365.003	6.70779
365.215	6.08781
365.427	7.09156
365.639	7.24127
365.852	6.65867
366.064	8.15885
366.276	6.55205
366.488	6.8867
366.701	6.40924
366.913	6.41244
367.125	6.54313
367.337	6.01484
367.549	6.28649
367.762	6.66925
367.974	6.61765
368.186	6.51513
368.398	7.25456
368.61	7.02065
368.822	7.25972
369.034	6.44636
369.246	7.2954
369.458	9.04764
369.67	6.15966
369.882	8.02562
370.094	5.48064
370.306	7.91302
370.518	6.5914
370.73	6.43515
370.942	6.49472
371.154	6.96695
371.366	6.73395
371.578	7.42901
371.79	6.78834
372.002	7.77513
372.214	8.5916
372.425	7.04796
372.637	8.32075
372.849	7.45579
373.061	5.76447
373.273	7.32344
373.484	7.30465
373.696	7.77516
373.908	5.7058
374.12	7.86979
374.331	7.56193
374.543	6.55827
374.755	6.58502
374.967	7.2751
375.178	7.83628
375.39	6.90725
375.602	7.46396
375.813	6.19797
376.025	6.85784
376.236	7.44956
376.448	7.76128
376.66	7.29653
376.871	7.44992
377.083	8.35092
377.294	8.99298
377.506	7.38761
377.717	8.79155
377.929	7.92986
378.14	7.65113
378.352	8.01189
378.563	8.18235
378.775	8.69435
378.986	7.1346
379.197	7.83141
379.409	7.12863
379.62	8.11268
379.832	8.08961
380.043	7.58134
380.254	8.0572
380.466	7.13926
380.677	9.88138
380.888	9.17278
381.1	9.86083
381.311	9.7728
381.522	8.18099
381.733	9.95046
381.945	8.06382
382.156	7.97809
382.367	7.76788
382.578	10.12191
382.789	10.19355
383.001	7.8493
383.212	9.45755
383.423	9.29491
383.634	9.24987
383.845	9.03706
384.056	8.16746
384.267	8.49971
384.478	8.56669
384.69	7.77556
384.901	8.87525
385.112	8.74251
385.323	9.88248
385.534	8.91195
385.745	8.95478
385.956	8.81764
386.167	8.2233
386.378	9.02249
386.588	8.33873
386.799	8.22507
387.01	7.85419
387.221	9.38384
387.432	8.86183
387.643	9.9114
387.854	8.67467
388.065	8.58631
388.275	8.80707
388.486	8.60134
388.697	8.8206
388.908	8.62023
389.119	9.7908
389.329	10.01627
389.54	9.16201
389.751	9.30932
389.962	10.04748
390.172	9.18497
390.383	9.015
390.594	8.81589
390.804	8.8011
391.015	8.98742
391.226	9.52523
391.436	9.7667
391.647	9.62804
391.858	9.81752
392.068	8.51409
392.279	8.90195
392.489	9.65903
392.7	10.10756
392.91	9.21536
393.121	9.0625
393.331	10.04545
393.542	10.32493
393.752	10.11677
393.963	9.95961
394.173	9.99024
394.384	10.01918
394.594	9.89589
394.804	9.03336
395.015	9.93989
395.225	10.14987
395.436	9.20535
395.646	10.01101
395.856	9.60829
396.067	8.97401
396.277	10.39309
396.487	10.13124
396.697	10.25522
396.908	10.17335
397.118	10.162
397.328	9.98574
397.538	10.52563
397.749	9.41996
397.959	10.58001
398.169	10.2643
398.379	9.17784
398.589	10.4177
398.8	10.32998
399.01	10.28641
399.22	9.92194
399.43	11.59881
399.64	10.20164
399.85	10.44588
400.06	10.36754
400.27	9.59764
400.48	10.09045
400.69	10.99295
400.9	9.83372
401.11	9.57305
401.32	10.60036
401.53	9.90559
401.74	11.37046
401.95	10.54378
402.16	9.94278
402.37	10.60911
402.58	10.10939
402.79	10.58521
403	11.14862
403.209	9.99178
403.419	11.24022
403.629	9.94644
403.839	11.11727
404.049	11.23329
404.258	10.45045
404.468	10.21782
404.678	11.13488
404.888	11.40574
405.097	10.48559
405.307	10.67006
405.517	11.21297
405.727	11.0529
405.936	10.52
406.146	11.01057
406.356	11.73767
406.565	10.65676
406.775	10.62988
406.984	10.56221
407.194	11.93903
407.404	10.7972
407.613	11.22662
407.823	11.27229
408.032	11.48811
408.242	11.45226
408.451	10.58097
408.661	10.72838
408.87	12.08606
409.08	10.35148
409.289	11.13534
409.499	11.20929
409.708	10.9077
409.918	9.80534
410.127	11.25592
410.336	12.00994
410.546	11.56725
410.755	10.98703
410.964	11.02909
411.174	10.50738
411.383	11.55679
411.592	11.52103
411.802	10.73903
412.011	11.67007
412.22	10.95024
412.429	12.25424
412.639	12.10765
412.848	11.83143
413.057	12.14757
413.266	11.96407
413.475	11.30359
413.685	11.6041
413.894	12.06501
414.103	12.03539
414.312	11.9427
414.521	11.22214
414.73	11.45951
414.939	12.7994
415.148	11.79663
415.357	11.69921
415.566	11.40005
415.776	11.39011
415.985	11.59528
416.194	12.21969
416.403	13.02255
416.611	11.05982
416.82	11.59594
417.029	11.97003
417.238	11.65199
417.447	11.49674
417.656	11.96204
417.865	11.60875
418.074	12.00481
418.283	12.09903
418.492	12.72636
418.7	12.5868
418.909	13.62956
419.118	12.84219
419.327	13.27132
419.536	13.1506
419.744	13.35167
419.953	14.57791
420.162	15.01351
420.371	14.55762
420.579	15.3734
420.788	16.15322
420.997	16.2198
421.205	16.88053
421.414	16.6031
421.623	16.86796
421.831	16.46697
422.04	16.90155
422.249	15.98609
422.457	16.23803
422.666	15.35742
422.874	16.18264
423.083	16.23787
423.291	16.18456
423.5	16.27898
423.708	16.67347
423.917	17.20928
424.125	16.68628
424.334	16.74133
424.542	18.3348
424.751	17.89755
424.959	17.47301
425.167	17.48603
425.376	17.28809
