Data from WindowProjectSample_Transmission__76__00076.txt Node

Date: Mon May 05 18:47:30 EDT 2025
User: jessi
Spectrometer: SR400872
Trigger mode: 0
Integration Time (sec): 5.000010E-1
Scans to average: 20
Electric dark correction enabled: true
Nonlinearity correction enabled: true
Boxcar width: 0
XAxis mode: Wavelengths
Number of Pixels in Spectrum: 3648
>>>>>Begin Spectral Data<<<<<
184.909	21938.71793
185.132	-5206.08896
185.355	-3176.38341
185.578	-19067.5525
185.801	1338.11626
186.024	11171.52391
186.247	-1625.17044
186.47	1142.20415
186.693	423.52321
186.916	353.16844
187.139	-3902.87977
187.362	3530.35326
187.585	4699.92628
187.808	3628.37853
188.031	23.47863
188.254	-58990.23778
188.476	-678.38995
188.699	6482.56976
188.922	686.95962
189.145	-16036.27317
189.368	-640.62292
189.591	-1457.47988
189.813	3138.32691
190.036	-50178.29274
190.259	-880.45923
190.482	-4780.86378
190.705	7304.04899
190.927	-2379.71911
191.15	13759.07922
191.373	3705.17577
191.595	-8895.32943
191.818	-4270.14595
192.041	-7381.97465
192.263	-3419.99578
192.486	-989.78772
192.709	-3919.572
192.931	7878.20742
193.154	-28898.30545
193.377	-2921.13421
193.599	-2814.25873
193.822	-9441.89354
194.044	-1906.80449
194.267	1162.11803
194.489	371.12179
194.712	-44447.66327
194.934	-32087.0503
195.157	1325.36212
195.379	1497.48917
195.602	-7338.84254
195.824	-1327.83847
196.047	-9219.09062
196.269	2733.6272
196.492	-6421.9652
196.714	28476.00103
196.936	-8759.8806
197.159	-1206.81437
197.381	1159.5163
197.604	402.03413
197.826	12362.42888
198.048	-11410.39296
198.271	-2912.79917
198.493	7749.1201
198.715	2361.54867
198.938	-537.05079
199.16	7269.59235
199.382	-104158.13004
199.604	2749.64324
199.827	-1121.05445
200.049	-2956.53758
200.271	13982.74401
200.493	1285.11703
200.715	-38150.4382
200.938	-6320.29412
201.16	-4313.38509
201.382	21687.19535
201.604	2298.62854
201.826	2276.66813
202.048	-2053.28799
202.27	-2062.68569
202.492	-36600.68941
202.715	2870.38565
202.937	-4408.57867
203.159	-6525.81678
203.381	1516.33755
203.603	7223.61629
203.825	6759.07293
204.047	2173.65669
204.269	-2981.48353
204.491	2091.80565
204.713	6053.65675
204.935	-487311.11968
205.156	1197.37663
205.378	-2896.97806
205.6	1731.3218
205.822	157708.21727
206.044	-1051.93609
206.266	1566.3836
206.488	4913.25099
206.71	-5263.51009
206.932	1196.0335
207.153	12450.0777
207.375	-7090.05969
207.597	-39495.94341
207.819	-2856.02745
208.041	2498.74321
208.262	528.08357
208.484	708.00163
208.706	-812.43101
208.927	-895.9007
209.149	542.78186
209.371	-2900.52435
209.593	-304.82234
209.814	-881.38108
210.036	523.54123
210.258	-755.14353
210.479	1723.05756
210.701	1616.06814
210.922	3357.59313
211.144	-3745.7936
211.366	2131.36404
211.587	7500.20382
211.809	-8571.69462
212.03	2383.29342
212.252	498.48111
212.473	2042.95425
212.695	-5591.5042
212.916	3127.01848
213.138	-637.82984
213.359	3879.44321
213.581	5196.90436
213.802	-805.01838
214.024	1133.1069
214.245	2145.72947
214.466	3313.09553
214.688	-3217.53629
214.909	-1192.04566
215.131	-1700.23964
215.352	-3258.42349
215.573	15351.11684
215.795	5224.06132
216.016	5345.84236
216.237	847.25707
216.459	3698.60411
216.68	1917.48738
216.901	5356.62944
217.122	-3027.72552
217.344	-11417.23435
217.565	3405.58375
217.786	9098.29403
218.007	16249.01053
218.228	-710.48105
218.45	5573.13474
218.671	827.61866
218.892	37908.38084
219.113	1538.30867
219.334	-460.31448
219.555	10384.87147
219.776	3304.75734
219.997	23082.78313
220.219	2920.70178
220.44	-10451.49017
220.661	448.52318
220.882	1566.46418
221.103	-1214.42541
221.324	2270.26504
221.545	2301.94281
221.766	-9183.09563
221.987	923.15879
222.208	1630.23733
222.429	4479.32198
222.65	370.08805
222.87	19840.12128
223.091	704.60119
223.312	608.95282
223.533	1384.90808
223.754	1499.62328
223.975	1392.13089
224.196	1998.64896
224.417	1368.27902
224.637	623.12819
224.858	90.43487
225.079	1129.00753
225.3	653.4301
225.521	3824.05351
225.741	477.95836
225.962	504.27102
226.183	139.36901
226.404	671.11255
226.624	463.1172
226.845	665.11716
227.066	418.03159
227.286	255.79079
227.507	130.21868
227.728	114.27032
227.948	238.64797
228.169	80.4826
228.389	86.81854
228.61	49.18966
228.831	64.26668
229.051	1.2898
229.272	39.77144
229.492	57.46943
229.713	13.7792
229.933	38.93017
230.154	33.52374
230.374	54.92739
230.595	36.96977
230.815	23.86892
231.036	38.9893
231.256	-8.88333
231.477	70.48181
231.697	37.45197
231.917	41.57115
232.138	56.24963
232.358	111.98698
232.579	107.91377
232.799	15.9878
233.019	108.24831
233.24	119.95705
233.46	39.35048
233.68	66.35678
233.901	45.36999
234.121	28.23332
234.341	13.44229
234.561	-5.55442
234.782	20.54597
235.002	67.27236
235.222	-3.88016
235.442	65.36432
235.662	33.90774
235.883	64.43068
236.103	49.58242
236.323	37.34115
236.543	32.89397
236.763	39.30107
236.983	45.30953
237.203	39.3178
237.423	63.34964
237.643	89.2265
237.864	76.41951
238.084	17.2101
238.304	25.33275
238.524	47.20491
238.744	40.21631
238.964	75.54653
239.184	63.32347
239.404	66.42717
239.624	36.70356
239.843	61.08856
240.063	35.98761
240.283	22.17079
240.503	25.21945
240.723	25.68067
240.943	15.2521
241.163	19.43443
241.383	15.05775
241.603	7.14297
241.822	9.88071
242.042	6.62907
242.262	8.81579
242.482	9.843
242.702	10.91122
242.921	2.99825
243.141	6.98286
243.361	7.02633
243.581	10.16398
243.8	8.06644
244.02	5.42844
244.24	9.43236
244.459	9.48283
244.679	18.42323
244.899	10.8425
245.118	14.03996
245.338	12.1522
245.558	13.76637
245.777	8.71796
245.997	10.7265
246.216	10.05264
246.436	6.40263
246.655	4.83442
246.875	3.25196
247.094	6.57729
247.314	2.11114
247.533	3.68453
247.753	4.39497
247.972	3.41847
248.192	1.10122
248.411	1.89972
248.631	3.48115
248.85	4.90398
249.07	4.13884
249.289	6.20757
249.508	4.81364
249.728	6.73741
249.947	7.25065
250.166	9.31856
250.386	4.20481
250.605	7.17293
250.824	11.34768
251.044	7.53059
251.263	29.24051
251.482	14.80166
251.701	11.89027
251.921	-0.38528
252.14	3.10696
252.359	3.96318
252.578	10.25726
252.798	3.53561
253.017	9.15934
253.236	4.30712
253.455	6.01419
253.674	10.61536
253.893	4.62671
254.112	8.09095
254.331	11.18239
254.551	8.49276
254.77	3.79096
254.989	13.65369
255.208	9.98307
255.427	15.0163
255.646	11.82136
255.865	21.88424
256.084	8.94943
256.303	10.63521
256.522	13.74809
256.741	2.39974
256.96	3.18607
257.179	8.23306
257.397	11.00792
257.616	6.01663
257.835	6.12223
258.054	15.73743
258.273	10.7144
258.492	11.35858
258.711	6.83145
258.93	3.25208
259.148	4.96671
259.367	4.60092
259.586	5.70925
259.805	2.40742
260.023	5.35709
260.242	4.02696
260.461	2.80086
260.68	1.30359
260.898	4.5367
261.117	1.57868
261.336	0.98375
261.554	3.47292
261.773	3.41375
261.992	0.9149
262.21	3.3222
262.429	3.43985
262.648	7.54194
262.866	8.21917
263.085	5.72978
263.303	5.16985
263.522	8.86708
263.74	9.16167
263.959	15.63782
264.178	7.13702
264.396	6.52405
264.615	4.61794
264.833	10.60659
265.051	8.9642
265.27	11.13546
265.488	11.33792
265.707	6.2679
265.925	11.29926
266.144	4.94684
266.362	5.83482
266.58	5.64876
266.799	5.22181
267.017	6.05656
267.235	5.64317
267.454	3.30591
267.672	1.97175
267.89	3.97056
268.109	4.47951
268.327	4.52642
268.545	1.08145
268.763	3.93136
268.982	1.32078
269.2	4.32229
269.418	3.09832
269.636	2.07172
269.854	4.77054
270.073	3.25019
270.291	1.82256
270.509	1.74745
270.727	4.48193
270.945	7.53327
271.163	7.33095
271.381	1.48854
271.599	3.45658
271.817	5.47906
272.036	1.85625
272.254	3.22594
272.472	2.55132
272.69	2.57094
272.908	2.40016
273.126	4.48672
273.344	5.63975
273.562	1.94667
273.779	2.42485
273.997	3.75196
274.215	4.36359
274.433	2.79625
274.651	4.45324
274.869	4.95675
275.087	3.0507
275.305	4.10166
275.523	2.48146
275.74	3.05238
275.958	5.68277
276.176	8.50227
276.394	2.42796
276.612	3.20372
276.829	3.21462
277.047	2.74432
277.265	2.96964
277.483	3.60314
277.7	4.33327
277.918	3.38001
278.136	6.5439
278.353	2.73192
278.571	1.86152
278.789	4.66401
279.006	0.9258
279.224	2.85158
279.442	5.13674
279.659	3.60327
279.877	2.57247
280.094	6.16238
280.312	1.03058
280.529	3.4086
280.747	0.98989
280.964	2.53748
281.182	6.2752
281.399	2.81793
281.617	3.95313
281.834	2.50316
282.052	2.00041
282.269	3.28207
282.487	2.68354
282.704	2.15602
282.921	2.39415
283.139	3.44058
283.356	4.07782
283.574	3.96041
283.791	1.99675
284.008	5.65469
284.226	3.03295
284.443	3.14566
284.66	4.40269
284.877	3.55041
285.095	2.22621
285.312	1.72638
285.529	0.82756
285.746	0.83424
285.964	2.12545
286.181	1.46629
286.398	2.03437
286.615	2.72414
286.832	2.65968
287.05	0.49624
287.267	1.92408
287.484	1.89659
287.701	2.62204
287.918	2.72046
288.135	2.84122
288.352	1.35051
288.569	1.29195
288.786	2.50019
289.003	2.11739
289.22	3.12375
289.437	1.7258
289.654	2.71707
289.871	3.15417
290.088	2.99734
290.305	2.24992
290.522	1.77293
290.739	2.08698
290.956	3.2188
291.173	3.67996
291.39	3.54031
291.607	2.43492
291.824	1.75893
292.04	1.29908
292.257	2.89177
292.474	3.22141
292.691	1.96067
292.908	1.03761
293.125	1.77628
293.341	1.04497
293.558	5.19782
293.775	2.00486
293.992	1.95998
294.208	0.92575
294.425	1.28027
294.642	1.89866
294.858	2.79518
295.075	0.72732
295.292	2.04726
295.508	2.3634
295.725	4.20502
295.942	1.71002
296.158	1.2663
296.375	1.96533
296.591	1.57235
296.808	1.69651
297.024	1.90111
297.241	2.21422
297.458	2.38716
297.674	0.12055
297.891	1.84623
298.107	1.40108
298.323	1.1815
298.54	3.09966
298.756	1.25506
298.973	0.63126
299.189	3.17118
299.406	1.10766
299.622	2.82789
299.838	2.71834
300.055	2.70143
300.271	0.62576
300.487	1.03459
300.704	1.22966
300.92	0.604
301.136	4.25237
301.353	2.76001
301.569	1.92922
301.785	2.25754
302.001	2.63047
302.218	2.15182
302.434	2.34163
302.65	0.63604
302.866	1.5677
303.083	3.90494
303.299	3.73892
303.515	2.02384
303.731	2.00417
303.947	0.4745
304.163	1.09594
304.379	2.1363
304.595	2.57677
304.812	1.20867
305.028	1.27165
305.244	1.77557
305.46	2.70523
305.676	2.63018
305.892	3.18674
306.108	2.26198
306.324	1.49568
306.54	3.66668
306.756	2.62759
306.972	2.505
307.187	1.83206
307.403	3.43535
307.619	1.48098
307.835	3.05785
308.051	3.54733
308.267	0.95328
308.483	2.97026
308.699	2.43497
308.914	1.96388
309.13	1.75411
309.346	0.61251
309.562	0.97987
309.778	0.79755
309.993	2.43246
310.209	1.92093
310.425	0.86319
310.641	1.68808
310.856	0.94476
311.072	0.95308
311.288	1.81746
311.503	1.94777
311.719	0.35448
311.935	0.17888
312.15	2.26668
312.366	1.83554
312.581	2.31346
312.797	1.7896
313.013	2.62352
313.228	1.27615
313.444	1.93712
313.659	1.36175
313.875	2.27186
314.09	1.77664
314.306	3.22752
314.521	2.61337
314.737	2.59218
314.952	1.93255
315.168	1.83694
315.383	2.2835
315.599	1.77628
315.814	1.49872
316.029	2.61687
316.245	0.73666
316.46	0.56225
316.675	3.05485
316.891	3.44023
317.106	4.71121
317.321	2.19981
317.537	2.4627
317.752	2.68752
317.967	2.8459
318.183	1.11708
318.398	1.48117
318.613	2.70705
318.828	3.36585
319.043	2.742
319.259	1.75518
319.474	2.29275
319.689	3.1719
319.904	0.47615
320.119	2.63787
320.334	2.32522
320.549	1.84175
320.765	3.08979
320.98	2.18057
321.195	2.61575
321.41	1.76882
321.625	2.76638
321.84	3.6628
322.055	3.91037
322.27	1.22865
322.485	1.05363
322.7	2.236
322.915	2.84618
323.13	1.10374
323.345	3.32779
323.56	3.1154
323.775	2.45984
323.989	2.43366
324.204	2.30579
324.419	2.9145
324.634	0.87808
324.849	1.85841
325.064	5.02497
325.279	2.83404
325.493	2.42504
325.708	2.82284
325.923	1.2775
326.138	1.3407
326.352	3.45777
326.567	2.96157
326.782	1.63416
326.997	1.22966
327.211	2.54575
327.426	2.30474
327.641	1.599
327.855	0.60857
328.07	2.40877
328.285	3.5461
328.499	1.5323
328.714	2.24512
328.928	2.69264
329.143	1.86752
329.358	2.86195
329.572	2.91811
329.787	3.15728
330.001	4.31747
330.216	0.84751
330.43	3.63445
330.645	3.70919
330.859	2.70541
331.074	1.45082
331.288	2.34006
331.503	3.17309
331.717	1.09718
331.931	2.1715
332.146	2.21618
332.36	3.73199
332.575	2.40303
332.789	2.34221
333.003	2.16556
333.218	2.5093
333.432	1.37722
333.646	2.79329
333.86	3.45088
334.075	3.32888
334.289	1.4274
334.503	1.20012
334.717	2.33565
334.932	2.44336
335.146	3.39612
335.36	1.76347
335.574	2.60405
335.788	2.33657
336.003	2.96627
336.217	2.51227
336.431	2.54011
336.645	1.40966
336.859	0.95206
337.073	1.77557
337.287	2.30217
337.501	1.07271
337.715	2.12642
337.929	2.81396
338.143	0.90793
338.357	1.89762
338.571	1.17316
338.785	2.32244
338.999	1.62729
339.213	1.52354
339.427	0.70138
339.641	3.15818
339.855	1.7526
340.069	1.46574
340.283	2.96519
340.497	3.71377
340.711	2.25055
340.924	1.6323
341.138	1.03298
341.352	0.84257
341.566	2.24011
341.78	0.60433
341.993	1.57061
342.207	1.14844
342.421	2.15805
342.635	1.91275
342.848	1.57242
343.062	0.21711
343.276	1.27349
343.49	3.77233
343.703	1.34232
343.917	2.79783
344.131	2.67347
344.344	1.34177
344.558	1.62811
344.771	0.97426
344.985	3.30863
345.199	3.21355
345.412	2.12365
345.626	2.18256
345.839	0.593
346.053	0.94301
346.266	1.05648
346.48	2.49562
346.693	2.2182
346.907	2.16854
347.12	1.24378
347.334	2.19343
347.547	2.18257
347.76	1.47763
347.974	2.92806
348.187	2.12246
348.401	1.41194
348.614	1.51191
348.827	1.4562
349.041	2.33705
349.254	0.55361
349.467	1.57573
349.681	0.76934
349.894	1.41842
350.107	2.9451
350.32	3.20545
350.534	0.51144
350.747	1.47344
350.96	1.03334
351.173	1.27684
351.386	1.59639
351.6	1.44272
351.813	1.17459
352.026	1.70299
352.239	0.67405
352.452	1.43891
352.665	2.64183
352.878	1.73537
353.092	3.39133
353.305	2.31716
353.518	2.01064
353.731	1.19338
353.944	2.66862
354.157	1.23706
354.37	0.95897
354.583	0.92706
354.796	0.41058
355.009	2.5929
355.222	1.98018
355.435	1.76862
355.647	2.54677
355.86	0.94452
356.073	1.66326
356.286	1.28934
356.499	2.2535
356.712	1.85333
356.925	2.18057
357.138	2.36696
357.35	0.92135
357.563	1.42048
357.776	1.76318
357.989	1.25022
358.201	2.00872
358.414	1.74244
358.627	2.63822
358.84	1.33773
359.052	0.69396
359.265	0.92056
359.478	2.49226
359.69	-0.27589
359.903	2.01281
360.116	2.2139
360.328	0.34929
360.541	2.28021
360.753	0.69729
360.966	1.11133
361.179	1.16328
361.391	1.05522
361.604	0.73632
361.816	1.17371
362.029	0.94442
362.241	0.80264
362.454	0.91185
362.666	0.74312
362.879	1.4713
363.091	1.19623
363.304	0.7849
363.516	1.30739
363.728	0.58807
363.941	1.74083
364.153	1.05117
364.366	-0.05555
364.578	0.65036
364.79	1.67208
365.003	1.33379
365.215	0.96302
365.427	1.75148
365.639	2.19557
365.852	1.49495
366.064	3.22297
366.276	1.17108
366.488	1.81364
366.701	1.08612
366.913	1.30203
367.125	1.26806
367.337	0.83644
367.549	1.01967
367.762	1.51796
367.974	1.53819
368.186	0.77043
368.398	2.12878
368.61	1.92777
368.822	1.84395
369.034	1.4687
369.246	1.86705
369.458	3.54277
369.67	0.74852
369.882	2.84808
370.094	0.14527
370.306	2.81398
370.518	1.17713
370.73	0.95237
370.942	0.88202
371.154	1.32516
371.366	1.0527
371.578	1.58296
371.79	0.78554
372.002	2.21914
372.214	2.84411
372.425	1.54723
372.637	2.24145
372.849	1.67097
373.061	0.03893
373.273	1.74786
373.484	1.59101
373.696	2.108
373.908	-0.03085
374.12	2.32688
374.331	1.63501
374.543	0.98867
374.755	0.78165
374.967	1.6338
375.178	1.94242
375.39	1.13173
375.602	1.5331
375.813	0.44789
376.025	0.6246
376.236	1.55785
376.448	1.61126
376.66	1.04043
376.871	1.04046
377.083	2.3501
377.294	2.39311
377.506	0.96948
377.717	2.34143
377.929	1.53355
378.14	0.91692
378.352	1.7062
378.563	1.61515
378.775	2.38575
378.986	0.80192
379.197	1.38163
379.409	0.95421
379.62	2.03557
379.832	1.84063
380.043	1.24534
380.254	1.53496
380.466	0.80313
380.677	3.59818
380.888	2.91873
381.1	3.21263
381.311	3.20706
381.522	1.49961
381.733	3.55972
381.945	1.33391
382.156	1.64923
382.367	1.01744
382.578	3.47611
382.789	3.32565
383.001	1.14649
383.212	2.26207
383.423	2.61768
383.634	2.41951
383.845	1.98153
384.056	1.25666
384.267	1.69817
384.478	1.53264
384.69	0.79809
384.901	1.84454
385.112	1.84882
385.323	2.62799
385.534	1.87875
385.745	1.80501
385.956	1.84931
386.167	0.93755
386.378	1.98146
386.588	0.88912
386.799	1.14747
387.01	0.52008
387.221	2.18089
387.432	1.52773
387.643	2.93604
387.854	1.4536
388.065	1.37104
388.275	1.51844
388.486	1.37167
388.697	1.44601
388.908	1.46253
389.119	2.55127
389.329	2.87535
389.54	1.77481
389.751	1.9666
389.962	2.56374
390.172	1.90851
390.383	1.47223
390.594	1.3112
390.804	1.31387
391.015	1.36376
391.226	1.84531
391.436	2.12435
391.647	1.9496
391.858	2.16346
392.068	0.64615
392.279	1.04909
392.489	1.78484
392.7	2.58981
392.91	1.1358
393.121	1.29798
393.331	2.12439
393.542	2.55591
393.752	2.20969
393.963	2.10729
394.173	2.00268
394.384	2.24581
394.594	1.86525
394.804	1.16969
395.015	1.93536
395.225	2.27323
395.436	1.23276
395.646	2.26526
395.856	1.37289
396.067	1.0941
396.277	2.6001
396.487	2.17016
396.697	2.06013
396.908	2.29019
397.118	2.39258
397.328	2.18796
397.538	2.703
397.749	1.48862
397.959	2.56338
398.169	2.57483
398.379	1.23657
398.589	2.62086
398.8	2.1892
399.01	2.09387
399.22	1.8828
399.43	3.67884
399.64	2.00827
399.85	2.62318
400.06	2.16785
400.27	1.67423
400.48	2.22529
400.69	3.29386
400.9	1.9829
401.11	1.70644
401.32	2.77562
401.53	2.03314
401.74	3.41196
401.95	2.7884
402.16	1.68879
402.37	2.48034
402.58	1.88143
402.79	2.84328
403	3.07518
403.209	2.02001
403.419	3.01538
403.629	1.90596
403.839	2.94875
404.049	3.00502
404.258	2.07517
404.468	1.94733
404.678	2.64741
404.888	3.07129
405.097	1.94262
405.307	2.40092
405.517	2.84751
405.727	2.66591
405.936	2.23879
406.146	2.70739
406.356	3.36516
406.565	2.50489
406.775	2.24972
406.984	2.18762
407.194	3.62158
407.404	2.54735
407.613	2.86922
407.823	3.14683
408.032	3.28477
408.242	3.32152
408.451	2.41537
408.661	2.65736
408.87	3.81709
409.08	2.28605
409.289	2.88465
409.499	2.83778
409.708	2.88886
409.918	1.53152
410.127	2.84059
410.336	3.79028
410.546	3.22934
410.755	2.50745
410.964	2.54118
411.174	2.27935
411.383	3.08575
411.592	3.09577
411.802	2.16654
412.011	3.41802
412.22	2.63186
412.429	3.95368
412.639	3.80317
412.848	3.59938
413.057	3.73146
413.266	3.67215
413.475	3.04278
413.685	3.33871
413.894	3.56379
414.103	3.75171
414.312	3.53427
414.521	2.95885
414.73	3.03801
414.939	4.47047
415.148	3.46158
415.357	3.27103
415.566	2.9123
415.776	2.9923
415.985	2.88656
416.194	3.65407
416.403	4.25255
416.611	2.43769
416.82	2.98066
417.029	3.35321
417.238	2.90769
417.447	2.76646
417.656	3.05067
417.865	2.90721
418.074	3.09168
418.283	3.25612
418.492	3.79163
418.7	3.65924
418.909	4.3872
419.118	3.60745
419.327	3.82566
419.536	3.71875
419.744	3.44992
419.953	4.5603
420.162	4.58796
420.371	3.87879
420.579	3.94832
420.788	4.8381
420.997	4.82306
421.205	4.92479
421.414	4.70618
421.623	4.73243
421.831	4.37311
422.04	4.94341
422.249	4.17307
422.457	4.71875
422.666	4.08512
422.874	4.9822
423.083	4.99661
423.291	4.98885
423.5	4.74957
423.708	5.01042
423.917	5.35599
424.125	4.92947
424.334	4.7357
424.542	6.31421
424.751	5.65394
424.959	5.35981
425.167	5.6369
425.376	5.38867
425.584	4.69395
425.793	4.71865
426.001	3.99225
426.209	4.52283
426.418	3.65344
426.626	3.66758
426.834	3.45343
427.042	3.86845
427.251	3.49104
