Data from WindowProjectSample3_Transmission__10__00010.txt Node

Date: Sun May 04 09:49:45 EDT 2025
User: jessi
Spectrometer: SR400872
Trigger mode: 0
Integration Time (sec): 5.000070E-1
Scans to average: 10
Electric dark correction enabled: true
Nonlinearity correction enabled: true
Boxcar width: 0
XAxis mode: Wavelengths
Number of Pixels in Spectrum: 3648
>>>>>Begin Spectral Data<<<<<
184.909	-5683.06068
185.132	10714.42889
185.355	-8225.47975
185.578	-55122.06478
185.801	4188.92866
186.024	-134640.30573
186.247	-758.74976
186.47	1357.84055
186.693	1028.86659
186.916	-510.96565
187.139	-2481761.41039
187.362	-2627.35681
187.585	8603.16992
187.808	1928.3938
188.031	-55.06394
188.254	4992.43688
188.476	-1530.79405
188.699	2541.69826
188.922	509.08935
189.145	-5888.40069
189.368	-4703.49396
189.591	1617.04934
189.813	-142458.24302
190.036	8830.44288
190.259	1561.07172
190.482	5515.6627
190.705	16069.73063
190.927	18758.9242
191.15	-4090.39855
191.373	2047.25997
191.595	1541.45834
191.818	17380.93559
192.041	986.42589
192.263	-7890.74773
192.486	-1574.1064
192.709	2787.71291
192.931	-3400.87682
193.154	13417.63453
193.377	2490.25741
193.599	28946.10034
193.822	2204.48507
194.044	2058.1929
194.267	1139.46575
194.489	-132.76574
194.712	3750.37271
194.934	34403.17212
195.157	-582.47004
195.379	11172.00713
195.602	2093.2347
195.824	4728.9756
196.047	6148.12854
196.269	14040.79765
196.492	-11821.68962
196.714	3935.52965
196.936	6937.52921
197.159	11067.93833
197.381	4547.19049
197.604	1765566.88593
197.826	2054.32211
198.048	2161.00201
198.271	9101.96264
198.493	2152.95408
198.715	2688.3017
198.938	8852.05452
199.16	3582.80609
199.382	10131.14592
199.604	9306.55373
199.827	1824.91597
200.049	3175.9203
200.271	20733.6948
200.493	1788.19842
200.715	7608.62965
200.938	7982.01295
201.16	-3618.52297
201.382	31881.64363
201.604	3927.87757
201.826	8333.55281
202.048	4097.40596
202.27	1958.02428
202.492	5984.94378
202.715	19262.20842
202.937	3930.6622
203.159	1477.44929
203.381	2073.87671
203.603	2845.32602
203.825	-1559.72994
204.047	-23316.62206
204.269	3682.94429
204.491	7426.63091
204.713	-1668311.68666
204.935	2262.52735
205.156	3835.56011
205.378	1649.56339
205.6	36935.74844
205.822	4808.37697
206.044	3623.11969
206.266	6058.71895
206.488	1578.4514
206.71	9561.43581
206.932	1393.99414
207.153	28716.99451
207.375	16417.65541
207.597	12535.54386
207.819	38985.31966
208.041	-46124.50821
208.262	1073.65304
208.484	13072.10411
208.706	3915.70266
208.927	2347.89515
209.149	916.66208
209.371	3619.62126
209.593	847.15712
209.814	10103.59284
210.036	-427244.18081
210.258	1705.18122
210.479	1999.67637
210.701	3592.93907
210.922	-5474.15331
211.144	-3144.55244
211.366	5067.05646
211.587	2431.34636
211.809	5746.91534
212.03	-63715.48398
212.252	471.11832
212.473	909.45774
212.695	744.69737
212.916	1382.57222
213.138	663.8516
213.359	5075.0522
213.581	2812.90188
213.802	894.13672
214.024	7248.8223
214.245	-13840.44462
214.466	496.56178
214.688	3808.71084
214.909	10107.75388
215.131	4425.73868
215.352	2339.49531
215.573	11820.37672
215.795	2109.91076
216.016	1940.30031
216.237	-720998.41585
216.459	1926.65888
216.68	5997.22354
216.901	3182.97089
217.122	862.61813
217.344	3102.10935
217.565	7276.48566
217.786	3725.23695
218.007	929.52231
218.228	2209.24226
218.45	-15849.54965
218.671	45519.72573
218.892	19801.784
219.113	1706.38106
219.334	6651.75831
219.555	-8642.05566
219.776	1829.42831
219.997	4138.64237
220.219	1136.99905
220.44	1583.98083
220.661	1671.23466
220.882	5640.70504
221.103	1529.00348
221.324	8074.65218
221.545	3243.01913
221.766	3072.49498
221.987	1571.14916
222.208	967.85912
222.429	2288.88947
222.65	150.4669
222.87	849.98179
223.091	1599.49774
223.312	1046.39426
223.533	2076.24056
223.754	1610.43306
223.975	1762.4627
224.196	1046.47521
224.417	5024.97782
224.637	688.6547
224.858	76.60054
225.079	1147.95817
225.3	617.57286
225.521	2268.67272
225.741	622.98473
225.962	618.22617
226.183	153.17947
226.404	1022.96636
226.624	591.67667
226.845	606.68921
227.066	453.12241
227.286	317.78108
227.507	187.4466
227.728	144.84323
227.948	275.64854
228.169	96.99763
228.389	103.60841
228.61	57.71873
228.831	82.85274
229.051	9.22329
229.272	50.60818
229.492	72.72467
229.713	21.74455
229.933	52.31852
230.154	44.87601
230.374	74.7947
230.595	58.77469
230.815	33.00857
231.036	58.63605
231.256	-7.6583
231.477	101.22155
231.697	54.06765
231.917	61.77921
232.138	87.26318
232.358	160.28516
232.579	155.20357
232.799	28.87315
233.019	130.24059
233.24	163.18564
233.46	55.73084
233.68	90.21512
233.901	64.05334
234.121	45.433
234.341	16.02976
234.561	-2.203
234.782	31.49472
235.002	95.62826
235.222	-2.7294
235.442	90.71846
235.662	45.06814
235.883	87.62198
236.103	80.61563
236.323	56.85418
236.543	47.72847
236.763	62.02218
236.983	61.34013
237.203	64.52519
237.423	87.86279
237.643	130.20611
237.864	113.92061
238.084	34.56755
238.304	36.48229
238.524	68.96875
238.744	60.97298
238.964	101.65732
239.184	88.27286
239.404	93.38388
239.624	45.29464
239.843	83.04209
240.063	49.64218
240.283	33.58967
240.503	36.92236
240.723	34.65181
240.943	19.85507
241.163	28.12755
241.383	21.30083
241.603	10.51301
241.822	12.66239
242.042	8.59477
242.262	12.00321
242.482	13.20036
242.702	14.97366
242.921	5.21355
243.141	11.14601
243.361	9.67375
243.581	14.60503
243.8	11.55647
244.02	8.12374
244.24	14.74057
244.459	14.90366
244.679	27.89895
244.899	19.08272
245.118	20.5333
245.338	18.64564
245.558	21.70209
245.777	11.64859
245.997	14.97295
246.216	14.63953
246.436	8.09315
246.655	6.18489
246.875	4.26663
247.094	8.44436
247.314	3.45016
247.533	5.47776
247.753	6.35336
247.972	5.27691
248.192	1.9756
248.411	3.15237
248.631	5.92887
248.85	7.18682
249.07	5.93314
249.289	9.5862
249.508	7.63707
249.728	11.44896
249.947	11.42763
250.166	13.55124
250.386	7.18749
250.605	10.33054
250.824	17.96135
251.044	12.56863
251.263	36.4264
251.482	19.8293
251.701	17.09717
251.921	0.35093
252.14	6.09396
252.359	6.25008
252.578	14.72853
252.798	6.05388
253.017	13.80912
253.236	7.00019
253.455	9.06996
253.674	17.96193
253.893	9.20545
254.112	11.98531
254.331	19.11205
254.551	14.88894
254.77	8.11761
254.989	20.97006
255.208	16.37432
255.427	22.95118
255.646	20.5332
255.865	30.96836
256.084	13.35254
256.303	15.8694
256.522	19.5196
256.741	3.40706
256.96	5.04496
257.179	12.85477
257.397	16.418
257.616	9.11326
257.835	10.75821
258.054	22.25856
258.273	14.6874
258.492	15.98787
258.711	9.62784
258.93	4.67785
259.148	6.4064
259.367	6.14502
259.586	7.97067
259.805	3.64944
260.023	7.25931
260.242	5.49835
260.461	4.01598
260.68	2.17763
260.898	6.23772
261.117	2.214
261.336	1.13341
261.554	5.82124
261.773	5.77018
261.992	1.14683
262.21	5.75576
262.429	6.88427
262.648	10.63094
262.866	12.42913
263.085	8.32929
263.303	7.49669
263.522	13.18418
263.74	13.42614
263.959	22.86142
264.178	11.52438
264.396	10.34584
264.615	7.97574
264.833	16.73764
265.051	14.71457
265.27	15.71427
265.488	16.23593
265.707	10.28025
265.925	15.96836
266.144	7.50002
266.362	8.65216
266.58	8.78186
266.799	7.4226
267.017	8.8762
267.235	7.75743
267.454	5.07333
267.672	2.80713
267.89	7.14481
268.109	6.91127
268.327	6.66734
268.545	1.28239
268.763	5.71027
268.982	2.69691
269.2	7.38707
269.418	4.33306
269.636	4.02956
269.854	6.97782
270.073	5.19951
270.291	2.88862
270.509	3.21546
270.727	6.67023
270.945	10.67298
271.163	10.5436
271.381	2.83466
271.599	4.42828
271.817	8.08964
272.036	2.60686
272.254	4.57967
272.472	3.99487
272.69	3.67765
272.908	3.813
273.126	6.5571
273.344	7.84922
273.562	3.17456
273.779	3.99585
273.997	5.99711
274.215	6.61793
274.433	4.7689
274.651	7.18872
274.869	7.14868
275.087	4.66785
275.305	6.51569
275.523	3.81864
275.74	4.86805
275.958	8.20254
276.176	12.28583
276.394	3.70641
276.612	4.96564
276.829	4.85809
277.047	4.44661
277.265	4.84224
277.483	5.92826
277.7	6.23252
277.918	5.48908
278.136	9.89748
278.353	4.8041
278.571	2.83955
278.789	7.26693
279.006	1.80864
279.224	4.24196
279.442	7.18696
279.659	5.07679
279.877	3.69328
280.094	8.56907
280.312	1.87617
280.529	5.42233
280.747	1.76778
280.964	4.11893
281.182	8.76462
281.399	4.5581
281.617	5.37027
281.834	3.78711
282.052	3.11743
282.269	4.63275
282.487	3.83487
282.704	3.31827
282.921	3.43636
283.139	5.34142
283.356	6.26805
283.574	5.44713
283.791	2.83366
284.008	7.90989
284.226	4.63221
284.443	5.1188
284.66	6.36491
284.877	4.91655
285.095	3.14148
285.312	2.51312
285.529	1.6843
285.746	1.2965
285.964	3.29648
286.181	2.11985
286.398	2.88553
286.615	4.19903
286.832	3.84073
287.05	1.07881
287.267	3.02321
287.484	3.10556
287.701	4.22106
287.918	4.07204
288.135	4.24344
288.352	1.87262
288.569	2.41221
288.786	3.75672
289.003	2.7787
289.22	4.4007
289.437	2.38188
289.654	4.37948
289.871	4.58128
290.088	4.12171
290.305	3.39323
290.522	2.72215
290.739	3.22332
290.956	4.81422
291.173	5.64889
291.39	5.2208
291.607	3.73962
291.824	2.93291
292.04	1.84359
292.257	4.30819
292.474	4.89926
292.691	3.33817
292.908	1.70505
293.125	2.65925
293.341	1.99281
293.558	7.42306
293.775	3.0491
293.992	3.30139
294.208	1.52453
294.425	2.18014
294.642	2.87556
294.858	4.13107
295.075	1.26623
295.292	3.08595
295.508	3.70796
295.725	5.49002
295.942	2.77647
296.158	2.03231
296.375	3.13748
296.591	2.42433
296.808	2.59909
297.024	3.14898
297.241	3.44894
297.458	3.69199
297.674	0.56212
297.891	3.0671
298.107	2.62924
298.323	1.76441
298.54	4.6474
298.756	2.49293
298.973	1.2414
299.189	4.94299
299.406	2.46822
299.622	4.74606
299.838	4.76648
300.055	4.28917
300.271	1.48771
300.487	2.06849
300.704	2.42602
300.92	1.74425
301.136	6.40617
301.353	5.02943
301.569	3.60667
301.785	3.89391
302.001	4.62376
302.218	4.27423
302.434	4.4514
302.65	1.90317
302.866	2.97622
303.083	6.70292
303.299	6.87621
303.515	3.71076
303.731	4.29236
303.947	1.99418
304.163	2.97224
304.379	4.10463
304.595	4.6009
304.812	2.78421
305.028	2.82781
305.244	3.34631
305.46	4.72905
305.676	5.13265
305.892	5.96624
306.108	4.72436
306.324	3.59669
306.54	6.80546
306.756	4.85997
306.972	4.67
307.187	3.61916
307.403	5.89594
307.619	3.19876
307.835	5.50863
308.051	5.82981
308.267	2.48031
308.483	5.7864
308.699	4.80275
308.914	4.30131
309.13	4.22277
309.346	2.35803
309.562	2.85617
309.778	2.34361
309.993	4.93045
310.209	4.10256
310.425	2.65093
310.641	3.83175
310.856	2.87078
311.072	2.79428
311.288	4.07646
311.503	4.58879
311.719	2.09962
311.935	2.08473
312.15	4.88901
312.366	4.43618
312.581	5.03273
312.797	4.30436
313.013	5.57945
313.228	3.57057
313.444	3.96618
313.659	3.16668
313.875	4.98466
314.09	4.04797
314.306	5.78662
314.521	5.39408
314.737	5.25816
314.952	4.66811
315.168	4.58686
315.383	4.96147
315.599	3.92375
315.814	4.2798
316.029	5.34574
316.245	3.04106
316.46	2.06978
316.675	6.06303
316.891	7.0186
317.106	8.61055
317.321	4.92597
317.537	5.5605
317.752	5.59265
317.967	5.7512
318.183	3.54411
318.398	4.05276
318.613	6.01841
318.828	6.64423
319.043	5.76125
319.259	4.36634
319.474	5.05115
319.689	6.425
319.904	2.28508
320.119	5.96432
320.334	4.7246
320.549	4.32623
320.765	6.24508
320.98	5.04496
321.195	5.26634
321.41	4.78581
321.625	5.77261
321.84	7.23007
322.055	7.04356
322.27	3.9399
322.485	3.49491
322.7	5.32589
322.915	5.96687
323.13	4.1382
323.345	6.95285
323.56	5.89194
323.775	5.89742
323.989	5.44752
324.204	5.37067
324.419	6.28182
324.634	3.41228
324.849	4.81139
325.064	8.21019
325.279	6.39874
325.493	5.62095
325.708	6.183
325.923	4.06561
326.138	4.48865
326.352	7.18577
326.567	6.22289
326.782	4.42662
326.997	4.17543
327.211	6.08795
327.426	5.5455
327.641	4.98629
327.855	3.10575
328.07	6.11277
328.285	7.68963
328.499	4.63743
328.714	5.5477
328.928	5.96796
329.143	5.20786
329.358	6.79275
329.572	6.87828
329.787	7.23564
330.001	8.97616
330.216	3.35173
330.43	7.99411
330.645	7.31622
330.859	6.55947
331.074	4.03771
331.288	5.64536
331.503	7.82199
331.717	3.78337
331.931	5.24144
332.146	5.91299
332.36	8.20585
332.575	5.84971
332.789	5.61803
333.003	5.65761
333.218	6.29126
333.432	4.75435
333.646	6.69538
333.86	7.87762
334.075	7.96438
334.289	4.833
334.503	3.75707
334.717	6.79978
334.932	6.07952
335.146	7.11481
335.36	4.8954
335.574	7.16274
335.788	6.61861
336.003	7.28631
336.217	7.21435
336.431	6.37186
336.645	4.87377
336.859	4.25236
337.073	5.50438
337.287	5.86248
337.501	4.1591
337.715	6.56296
337.929	6.43379
338.143	4.10008
338.357	5.5235
338.571	5.04959
338.785	6.99824
338.999	5.26748
339.213	5.27847
339.427	4.46075
339.641	7.54184
339.855	5.3405
340.069	4.92536
340.283	7.32121
340.497	7.73054
340.711	6.75667
340.924	5.97428
341.138	4.90551
341.352	4.2622
341.566	5.9785
341.78	4.17985
341.993	5.25549
342.207	5.02614
342.421	6.48846
342.635	5.78445
342.848	5.60373
343.062	2.99775
343.276	5.42473
343.49	8.61999
343.703	5.11264
343.917	7.32023
344.131	7.5534
344.344	5.00283
344.558	5.60419
344.771	4.63155
344.985	7.68511
345.199	8.58269
345.412	6.76713
345.626	6.97105
345.839	4.18194
346.053	4.67841
346.266	5.19983
346.48	7.05254
346.693	6.7556
346.907	6.77469
347.12	4.95235
347.334	6.52911
347.547	6.83713
347.76	6.19456
347.974	7.64764
348.187	6.70077
348.401	5.85497
348.614	5.10703
348.827	6.18867
349.041	6.92902
349.254	3.89338
349.467	5.9821
349.681	5.03181
349.894	5.2978
350.107	7.76494
350.32	8.94946
350.534	4.54479
350.747	6.32444
350.96	5.40509
351.173	5.66738
351.386	5.8671
351.6	5.78536
351.813	5.938
352.026	6.27755
352.239	4.86925
352.452	5.94971
352.665	7.85379
352.878	5.85034
353.092	9.08314
353.305	7.34405
353.518	6.70914
353.731	5.13874
353.944	7.46088
354.157	6.07096
354.37	5.95748
354.583	4.99365
354.796	5.00144
355.009	7.94341
355.222	6.70888
355.435	6.44915
355.647	7.97769
355.86	5.69838
356.073	6.72244
356.286	6.12299
356.499	7.78832
356.712	7.58715
356.925	7.43923
357.138	8.05006
357.35	5.79707
357.563	6.3205
357.776	7.0561
357.989	7.00228
358.201	7.53543
358.414	7.38726
358.627	8.44444
358.84	6.75836
359.052	5.6531
359.265	5.86181
359.478	8.00384
359.69	4.00124
359.903	8.01795
360.116	7.97112
360.328	5.23263
360.541	7.91469
360.753	6.52785
360.966	6.72502
361.179	7.01801
361.391	6.94718
361.604	6.42328
361.816	6.92713
362.029	6.94687
362.241	6.3493
362.454	7.18333
362.666	6.32075
362.879	8.10327
363.091	6.92214
363.304	6.65928
363.516	6.76101
363.728	5.87642
363.941	7.77833
364.153	7.32075
364.366	4.93455
364.578	5.8761
364.79	7.62499
365.003	7.45956
365.215	6.63713
365.427	7.73642
365.639	8.30509
365.852	7.49509
366.064	8.93409
366.276	7.0471
366.488	7.66637
366.701	7.00163
366.913	6.78915
367.125	7.17429
367.337	6.55261
367.549	6.59609
367.762	7.10643
367.974	7.13702
368.186	7.21235
368.398	8.34821
368.61	7.78634
368.822	8.00036
369.034	6.75874
369.246	8.29981
369.458	10.25478
369.67	6.19855
369.882	9.35331
370.094	4.89432
370.306	8.82174
370.518	6.93445
370.73	6.79079
370.942	6.81355
371.154	7.31373
371.366	7.12883
371.578	8.19437
371.79	7.27696
372.002	8.76458
372.214	9.88452
372.425	7.41018
372.637	9.37384
372.849	8.29731
373.061	5.33922
373.273	8.03656
373.484	8.10702
373.696	8.50831
373.908	5.09662
374.12	8.60033
374.331	8.41611
374.543	6.66852
374.755	6.46332
374.967	7.5323
375.178	8.88789
375.39	7.35272
375.602	7.68268
375.813	6.17841
376.025	6.85407
376.236	8.0024
376.448	8.37952
376.66	7.59014
376.871	7.67471
377.083	8.71486
377.294	9.7661
377.506	7.63428
377.717	9.725
377.929	8.21986
378.14	7.60657
378.352	8.72954
378.563	8.9642
378.775	9.68217
378.986	7.25932
379.197	8.44705
379.409	7.51433
379.62	8.63811
379.832	8.29571
380.043	7.92041
380.254	8.48409
380.466	7.07321
380.677	11.22251
380.888	10.4612
381.1	11.04628
381.311	10.53498
381.522	8.84562
381.733	11.44845
381.945	8.18739
382.156	8.04419
382.367	8.11247
382.578	11.58598
382.789	11.70596
383.001	7.75286
383.212	10.6379
383.423	10.53944
383.634	9.79127
383.845	9.63542
384.056	8.41856
384.267	8.89821
384.478	8.8186
384.69	7.42062
384.901	9.30463
385.112	9.00204
385.323	10.79863
385.534	9.03006
385.745	9.27219
385.956	9.34687
386.167	8.22524
386.378	9.36251
386.588	8.33975
386.799	8.06792
387.01	7.66113
387.221	9.95796
387.432	9.12134
387.643	10.97039
387.854	8.66098
388.065	8.87343
388.275	9.12176
388.486	8.68854
388.697	9.24639
388.908	8.71616
389.119	10.42425
389.329	10.87948
389.54	9.25688
389.751	9.68215
389.962	10.80162
390.172	9.39754
390.383	9.03061
390.594	8.48234
390.804	8.62254
391.015	8.99836
391.226	9.60857
391.436	10.17854
391.647	9.90281
391.858	10.11189
392.068	7.99208
392.279	8.7374
392.489	10.06637
392.7	10.48412
392.91	8.84046
393.121	8.73815
393.331	10.20749
393.542	11.02073
393.752	10.75006
393.963	10.00747
394.173	10.15685
394.384	10.61038
394.594	9.98282
394.804	8.79338
395.015	10.05026
395.225	10.72645
395.436	8.87153
395.646	10.23216
395.856	9.5005
396.067	8.42826
396.277	11.0534
396.487	10.41488
396.697	10.33482
396.908	10.80865
397.118	10.6424
397.328	10.00999
397.538	10.78872
397.749	9.38063
397.959	11.11642
398.169	10.4983
398.379	8.57765
398.589	10.4168
398.8	10.48183
399.01	10.44973
399.22	9.91936
399.43	12.22579
399.64	10.0607
399.85	10.45045
400.06	10.42662
400.27	9.20918
400.48	10.29497
400.69	11.43932
400.9	9.84868
401.11	9.11943
401.32	11.05724
401.53	9.76536
401.74	11.97487
401.95	10.85275
402.16	10.01359
402.37	10.79179
402.58	9.99447
402.79	10.92469
403	10.94158
403.209	9.74386
403.419	11.65507
403.629	9.94583
403.839	11.63789
404.049	11.49305
404.258	10.26993
404.468	9.97504
404.678	11.41474
404.888	11.83749
405.097	10.4921
405.307	10.53548
405.517	11.39619
405.727	11.35249
405.936	10.36963
406.146	10.97901
406.356	12.10033
406.565	10.6351
406.775	10.31842
406.984	10.50765
407.194	12.84374
407.404	10.9418
407.613	11.33165
407.823	11.6198
408.032	12.21985
408.242	11.82685
408.451	10.39622
408.661	10.86668
408.87	12.68897
409.08	10.44559
409.289	11.30757
409.499	11.28187
409.708	11.01461
409.918	9.02384
410.127	11.40038
410.336	12.67402
410.546	12.05356
410.755	10.66
410.964	10.85542
411.174	10.3273
411.383	11.68008
411.592	11.41071
411.802	10.43738
412.011	11.79385
412.22	11.1894
412.429	12.72713
412.639	12.53729
412.848	12.01491
413.057	13.06174
413.266	12.29137
413.475	11.15275
413.685	12.01864
413.894	12.40825
414.103	12.41698
414.312	11.98553
414.521	11.09812
414.73	11.67171
414.939	13.13972
415.148	12.05855
415.357	11.89622
415.566	11.38201
415.776	11.06886
415.985	11.32762
416.194	12.63047
416.403	13.58441
416.611	10.60053
416.82	11.36021
417.029	12.16816
417.238	11.29641
417.447	11.36176
417.656	11.61705
417.865	11.48789
418.074	12.04249
418.283	12.06679
418.492	12.98361
418.7	12.87059
418.909	13.81648
419.118	12.4085
419.327	12.77873
419.536	12.4854
419.744	12.13858
419.953	13.40661
420.162	13.31104
420.371	12.47092
420.579	13.1495
420.788	14.05016
420.997	14.36114
421.205	14.4165
421.414	14.16246
421.623	14.34237
421.831	13.58864
422.04	14.41411
422.249	13.17116
422.457	13.55973
422.666	12.74677
422.874	13.8708
423.083	13.96071
423.291	14.08847
423.5	13.97284
423.708	14.40709
423.917	15.11141
424.125	14.33093
424.334	14.25642
424.542	16.14187
424.751	15.28323
424.959	14.72523
425.167	14.8735
