Data from WindowProjectSample_Transmission__69__00069__09720792984545783.txt Node

Date: Mon May 05 18:38:01 EDT 2025
User: jessi
Spectrometer: SR400872
Trigger mode: 0
Integration Time (sec): 5.000010E-1
Scans to average: 20
Electric dark correction enabled: true
Nonlinearity correction enabled: true
Boxcar width: 0
XAxis mode: Wavelengths
Number of Pixels in Spectrum: 3648
>>>>>Begin Spectral Data<<<<<
184.909	21187.15447
185.132	-5104.75065
185.355	-3124.73205
185.578	-18229.29238
185.801	1204.80551
186.024	10932.44735
186.247	-1626.60696
186.47	1135.2625
186.693	361.09373
186.916	305.12347
187.139	-3825.92538
187.362	3562.63536
187.585	4138.9172
187.808	3533.29526
188.031	-45.86647
188.254	-49915.02182
188.476	-744.1129
188.699	6485.54775
188.922	669.78673
189.145	-15632.32658
189.368	-660.32431
189.591	-1305.88589
189.813	3140.60871
190.036	-50322.2049
190.259	-877.98431
190.482	-4484.09894
190.705	7306.03812
190.927	-2498.51461
191.15	13320.58455
191.373	3420.86033
191.595	-9073.3574
191.818	-4089.98119
192.041	-7242.35449
192.263	-3462.3291
192.486	-962.58234
192.709	-3946.50172
192.931	8294.32174
193.154	-28346.42871
193.377	-2860.44984
193.599	-2618.17826
193.822	-10100.99133
194.044	-2009.48654
194.267	1238.2492
194.489	243.10913
194.712	-44449.70134
194.934	-32579.32075
195.157	1340.32076
195.379	1339.91483
195.602	-7112.56422
195.824	-1338.80027
196.047	-9263.16557
196.269	2815.18787
196.492	-6575.03896
196.714	29607.18073
196.936	-8621.92517
197.159	-1151.02252
197.381	1152.22991
197.604	519.85187
197.826	12185.11638
198.048	-11196.1261
198.271	-2886.90205
198.493	7754.57096
198.715	2285.12254
198.938	-519.167
199.16	7036.08418
199.382	-103050.00138
199.604	2530.84167
199.827	-1081.41035
200.049	-3163.84855
200.271	13939.59872
200.493	1238.16575
200.715	-38834.08416
200.938	-6195.21633
201.16	-4236.44843
201.382	20807.98075
201.604	2267.94617
201.826	2288.04551
202.048	-1999.25017
202.27	-2044.75638
202.492	-38156.21539
202.715	3089.9277
202.937	-4372.17392
203.159	-6469.44866
203.381	1647.05929
203.603	6666.39748
203.825	6993.29331
204.047	2263.83255
204.269	-3047.57405
204.491	2127.72009
204.713	6038.29094
204.935	-489802.89002
205.156	1234.35057
205.378	-2953.38525
205.6	1611.82843
205.822	159623.77257
206.044	-1204.85174
206.266	1606.24647
206.488	4258.91374
206.71	-5206.20138
206.932	1142.16521
207.153	12476.4102
207.375	-7034.18484
207.597	-38252.30626
207.819	-2887.73511
208.041	2549.22841
208.262	497.29481
208.484	730.62071
208.706	-818.35335
208.927	-881.89781
209.149	595.7853
209.371	-3027.13688
209.593	-346.13477
209.814	-824.13245
210.036	560.46783
210.258	-669.48937
210.479	1805.29905
210.701	1683.3227
210.922	3356.21028
211.144	-4242.75422
211.366	2106.22002
211.587	8860.98836
211.809	-8109.5925
212.03	2240.88483
212.252	457.53529
212.473	2030.8002
212.695	-6362.26128
212.916	3048.90733
213.138	-609.23285
213.359	3694.77602
213.581	5461.00123
213.802	-813.02172
214.024	1128.67493
214.245	2001.78963
214.466	3582.83843
214.688	-3189.6194
214.909	-1329.35628
215.131	-1780.57237
215.352	-3283.87764
215.573	14998.25842
215.795	5376.05195
216.016	5401.84796
216.237	762.38742
216.459	3570.00789
216.68	1869.02852
216.901	4985.33323
217.122	-3254.8586
217.344	-11913.23559
217.565	3499.89547
217.786	9098.03952
218.007	16350.72747
218.228	-972.29449
218.45	5989.90507
218.671	881.54347
218.892	40695.31114
219.113	1539.62566
219.334	-214.46948
219.555	10386.60012
219.776	3117.85555
219.997	22996.99591
220.219	2960.83842
220.44	-12305.92171
220.661	445.04681
220.882	1554.9763
221.103	-1123.33697
221.324	2349.09544
221.545	2324.08677
221.766	-9075.07709
221.987	1013.51299
222.208	1806.42262
222.429	4463.61554
222.65	284.98275
222.87	18103.64161
223.091	758.65991
223.312	565.39554
223.533	1322.80562
223.754	1522.21714
223.975	1399.01027
224.196	1969.456
224.417	1419.99558
224.637	636.70376
224.858	75.70155
225.079	1203.72176
225.3	665.88605
225.521	3816.61198
225.741	490.16466
225.962	544.24079
226.183	145.53523
226.404	663.96551
226.624	433.04018
226.845	664.90768
227.066	411.0072
227.286	251.76119
227.507	123.40297
227.728	123.02559
227.948	247.31758
228.169	78.04574
228.389	88.17918
228.61	47.91112
228.831	66.75772
229.051	4.00462
229.272	39.95024
229.492	59.48081
229.713	13.82629
229.933	36.99047
230.154	33.51158
230.374	55.9975
230.595	40.6787
230.815	23.90538
231.036	40.3274
231.256	-8.43981
231.477	71.82995
231.697	37.77434
231.917	40.03668
232.138	55.67984
232.358	115.87145
232.579	104.87922
232.799	18.02194
233.019	103.69887
233.24	116.11087
233.46	39.88073
233.68	65.40313
233.901	43.90988
234.121	28.07422
234.341	14.70944
234.561	-4.49436
234.782	22.89826
235.002	71.63246
235.222	-2.9462
235.442	67.52881
235.662	32.83008
235.883	64.79932
236.103	52.93749
236.323	34.07808
236.543	29.06102
236.763	40.71158
236.983	46.19458
237.203	41.32072
237.423	64.42505
237.643	88.21859
237.864	73.41352
238.084	19.21931
238.304	24.66548
238.524	48.3296
238.744	41.43246
238.964	75.25166
239.184	61.6453
239.404	65.00007
239.624	36.83195
239.843	60.3902
240.063	36.81351
240.283	22.13655
240.503	25.80423
240.723	25.71767
240.943	15.86983
241.163	19.84756
241.383	14.70437
241.603	8.27538
241.822	9.60418
242.042	6.18569
242.262	8.31897
242.482	9.74239
242.702	10.77387
242.921	2.85461
243.141	6.76564
243.361	6.62528
243.581	9.2635
243.8	7.75434
244.02	5.45106
244.24	9.75601
244.459	9.00404
244.679	17.53635
244.899	11.3439
245.118	13.03423
245.338	11.71356
245.558	13.92118
245.777	8.93392
245.997	11.07891
246.216	10.8835
246.436	6.49757
246.655	5.00146
246.875	3.3087
247.094	6.31328
247.314	2.27105
247.533	3.70473
247.753	4.38528
247.972	3.47755
248.192	1.13279
248.411	1.76661
248.631	3.84256
248.85	4.68248
249.07	4.01742
249.289	5.99346
249.508	5.17036
249.728	7.02181
249.947	7.29622
250.166	9.26732
250.386	4.25941
250.605	6.63334
250.824	11.55158
251.044	7.7984
251.263	29.45844
251.482	15.10487
251.701	11.41499
251.921	-0.35356
252.14	3.81399
252.359	3.85793
252.578	10.13827
252.798	3.29075
253.017	8.83609
253.236	4.0754
253.455	6.02596
253.674	10.67892
253.893	5.44914
254.112	7.96629
254.331	11.59765
254.551	8.69447
254.77	3.89475
254.989	13.76791
255.208	10.51061
255.427	15.55745
255.646	11.1684
255.865	21.78409
256.084	8.58175
256.303	10.85489
256.522	13.75921
256.741	3.61601
256.96	2.65813
257.179	7.63114
257.397	11.30552
257.616	5.89052
257.835	6.24562
258.054	15.14753
258.273	10.43805
258.492	11.41414
258.711	6.95804
258.93	3.29469
259.148	4.6742
259.367	4.69134
259.586	5.6213
259.805	2.344
260.023	5.43474
260.242	4.066
260.461	2.90665
260.68	1.40123
260.898	4.48528
261.117	1.30206
261.336	1.00704
261.554	3.65063
261.773	3.52167
261.992	0.66609
262.21	3.51271
262.429	3.73745
262.648	7.43182
262.866	8.07689
263.085	5.56227
263.303	4.94264
263.522	8.68736
263.74	9.134
263.959	15.61223
264.178	7.3113
264.396	6.80099
264.615	4.67691
264.833	10.61649
265.051	9.0471
265.27	10.96367
265.488	11.24026
265.707	6.24177
265.925	11.34036
266.144	4.95606
266.362	5.94263
266.58	5.67262
266.799	4.93161
267.017	5.9106
267.235	5.4751
267.454	3.39611
267.672	1.87447
267.89	4.27713
268.109	4.42986
268.327	4.50792
268.545	1.04331
268.763	4.1015
268.982	1.48925
269.2	4.1629
269.418	3.02182
269.636	1.65794
269.854	4.7624
270.073	3.21548
270.291	2.21029
270.509	1.97563
270.727	4.53027
270.945	7.58976
271.163	7.3163
271.381	1.47329
271.599	3.22588
271.817	5.49537
272.036	1.89599
272.254	3.25106
272.472	2.49835
272.69	2.74635
272.908	2.31921
273.126	4.71655
273.344	5.47122
273.562	1.83587
273.779	2.76255
273.997	4.06305
274.215	4.31606
274.433	3.08615
274.651	4.55621
274.869	4.6474
275.087	2.83733
275.305	3.99859
275.523	2.65518
275.74	2.93078
275.958	5.59672
276.176	8.50686
276.394	2.56348
276.612	3.37727
276.829	3.32533
277.047	2.70436
277.265	2.7884
277.483	3.86563
277.7	4.35148
277.918	3.49676
278.136	6.51279
278.353	3.17353
278.571	1.86662
278.789	4.41315
279.006	1.0089
279.224	3.20844
279.442	5.24846
279.659	3.60654
279.877	2.62056
280.094	6.0425
280.312	1.15908
280.529	3.53242
280.747	0.99203
280.964	2.68883
281.182	6.24165
281.399	2.71855
281.617	3.90514
281.834	2.58797
282.052	1.98557
282.269	3.37086
282.487	2.53943
282.704	2.19366
282.921	2.14553
283.139	3.52439
283.356	4.01861
283.574	3.9642
283.791	1.72593
284.008	5.7505
284.226	3.10481
284.443	3.15941
284.66	4.38551
284.877	3.55055
285.095	2.12209
285.312	1.6812
285.529	0.95126
285.746	0.80081
285.964	2.13868
286.181	1.53591
286.398	1.93224
286.615	2.75482
286.832	2.56803
287.05	0.5792
287.267	1.92729
287.484	1.79693
287.701	2.80317
287.918	2.55957
288.135	2.73674
288.352	1.26642
288.569	1.51647
288.786	2.31667
289.003	2.01709
289.22	3.11843
289.437	1.71905
289.654	2.88995
289.871	3.04649
290.088	3.02426
290.305	2.24488
290.522	1.71525
290.739	1.99573
290.956	3.1262
291.173	3.60491
291.39	3.55364
291.607	2.42705
291.824	1.83324
292.04	1.24693
292.257	2.98453
292.474	3.30371
292.691	1.97604
292.908	0.97972
293.125	1.70922
293.341	1.09815
293.558	5.12895
293.775	1.92456
293.992	2.07828
294.208	0.86807
294.425	1.33945
294.642	1.95985
294.858	2.51074
295.075	0.62888
295.292	1.89015
295.508	2.40797
295.725	4.10788
295.942	1.64516
296.158	1.20704
296.375	2.00639
296.591	1.53561
296.808	1.72797
297.024	1.9367
297.241	2.22137
297.458	2.40304
297.674	0.20665
297.891	1.77784
298.107	1.47089
298.323	1.0673
298.54	3.00864
298.756	1.29464
298.973	0.69631
299.189	3.14316
299.406	1.17592
299.622	2.76407
299.838	2.75157
300.055	2.65146
300.271	0.61109
300.487	1.01118
300.704	1.28385
300.92	0.54821
301.136	4.26556
301.353	2.64501
301.569	1.93913
301.785	2.31509
302.001	2.72603
302.218	2.17788
302.434	2.29781
302.65	0.71027
302.866	1.57719
303.083	4.03467
303.299	3.79661
303.515	2.00485
303.731	2.0505
303.947	0.55327
304.163	1.16001
304.379	2.0978
304.595	2.47465
304.812	1.23105
305.028	1.15797
305.244	1.80307
305.46	2.81485
305.676	2.65619
305.892	3.16532
306.108	2.29668
306.324	1.51155
306.54	3.66307
306.756	2.5098
306.972	2.46463
307.187	1.60648
307.403	3.38615
307.619	1.63758
307.835	3.16644
308.051	3.51029
308.267	0.96504
308.483	2.85959
308.699	2.48008
308.914	1.97312
309.13	1.76322
309.346	0.56292
309.562	0.93897
309.778	0.75788
309.993	2.47133
310.209	1.83663
310.425	0.88841
310.641	1.68947
310.856	0.98583
311.072	0.96704
311.288	1.77862
311.503	1.91793
311.719	0.29744
311.935	0.16228
312.15	2.23429
312.366	1.81714
312.581	2.26887
312.797	1.87749
313.013	2.58875
313.228	1.2802
313.444	1.78859
313.659	1.32475
313.875	2.32235
314.09	1.72764
314.306	3.14431
314.521	2.70454
314.737	2.54139
314.952	1.82173
315.168	1.82141
315.383	2.32042
315.599	1.72369
315.814	1.62517
316.029	2.63238
316.245	0.69011
316.46	0.52021
316.675	3.03884
316.891	3.57336
317.106	4.39457
317.321	2.23206
317.537	2.48496
317.752	2.66461
317.967	2.77661
318.183	1.22228
318.398	1.55524
318.613	2.81818
318.828	3.31488
319.043	2.78153
319.259	1.74009
319.474	2.1801
319.689	3.09239
319.904	0.45574
320.119	2.6265
320.334	2.22839
320.549	1.66971
320.765	2.90335
320.98	2.08023
321.195	2.6151
321.41	1.89144
321.625	2.63648
321.84	3.68962
322.055	3.67655
322.27	1.45256
322.485	1.01134
322.7	2.1605
322.915	2.97428
323.13	1.16638
323.345	3.35347
323.56	2.98002
323.775	2.42433
323.989	2.34098
324.204	2.30932
324.419	3.00329
324.634	0.88342
324.849	1.79063
325.064	4.99016
325.279	2.72676
325.493	2.38752
325.708	2.91019
325.923	1.31877
326.138	1.41507
326.352	3.49307
326.567	2.84523
326.782	1.60374
326.997	1.35429
327.211	2.45935
327.426	2.25834
327.641	1.69591
327.855	0.5917
328.07	2.22509
328.285	3.55735
328.499	1.59922
328.714	2.25717
328.928	2.74153
329.143	1.79332
329.358	2.92204
329.572	2.9229
329.787	3.18336
330.001	4.32178
330.216	0.9285
330.43	3.72774
330.645	3.73773
330.859	2.79705
331.074	1.53509
331.288	2.15135
331.503	3.11427
331.717	1.14691
331.931	2.17091
332.146	2.08178
332.36	3.57813
332.575	2.45403
332.789	2.33397
333.003	2.17902
333.218	2.50478
333.432	1.38506
333.646	2.69901
333.86	3.47484
334.075	3.51975
334.289	1.5233
334.503	1.19342
334.717	2.40666
334.932	2.32782
335.146	3.12235
335.36	1.69177
335.574	2.57986
335.788	2.43095
336.003	2.93277
336.217	2.43836
336.431	2.5888
336.645	1.40052
336.859	0.98595
337.073	1.7631
337.287	2.23858
337.501	1.05304
337.715	2.20085
337.929	2.77997
338.143	0.93723
338.357	1.78713
338.571	1.18548
338.785	2.25283
338.999	1.6009
339.213	1.49468
339.427	0.73243
339.641	3.23969
339.855	1.71564
340.069	1.52393
340.283	2.91173
340.497	3.6589
340.711	2.31304
340.924	1.64031
341.138	1.07473
341.352	0.86126
341.566	2.17132
341.78	0.48339
341.993	1.56544
342.207	1.03548
342.421	2.09805
342.635	1.79472
342.848	1.48644
343.062	0.20645
343.276	1.36286
343.49	3.74205
343.703	1.36142
343.917	2.6779
344.131	2.75876
344.344	1.38273
344.558	1.66078
344.771	0.91679
344.985	3.39073
345.199	3.15639
345.412	2.17386
345.626	2.13629
345.839	0.58859
346.053	1.08109
346.266	0.97208
346.48	2.54222
346.693	2.22631
346.907	2.05506
347.12	1.11575
347.334	2.20535
347.547	2.15297
347.76	1.51119
347.974	2.94181
348.187	2.1748
348.401	1.46607
348.614	1.36531
348.827	1.61536
349.041	2.27035
349.254	0.50108
349.467	1.63133
349.681	0.79937
349.894	1.34904
350.107	2.93256
350.32	3.22031
350.534	0.62603
350.747	1.50051
350.96	1.02275
351.173	1.18887
351.386	1.5074
351.6	1.35243
351.813	1.24063
352.026	1.76042
352.239	0.7238
352.452	1.52433
352.665	2.45673
352.878	1.73989
353.092	3.43888
353.305	2.32415
353.518	1.85888
353.731	1.14218
353.944	2.76536
354.157	1.26945
354.37	0.91963
354.583	1.11446
354.796	0.35719
355.009	2.62497
355.222	1.88951
355.435	1.77439
355.647	2.41402
355.86	0.92478
356.073	1.74996
356.286	1.31671
356.499	2.20927
356.712	1.87849
356.925	2.13259
357.138	2.33591
357.35	0.99469
357.563	1.40136
357.776	1.77462
357.989	1.33675
358.201	1.98513
358.414	1.67121
358.627	2.65887
358.84	1.42294
359.052	0.68268
359.265	0.96127
359.478	2.47199
359.69	-0.26671
359.903	2.00295
360.116	2.25428
360.328	0.399
360.541	2.21069
360.753	0.71079
360.966	1.13487
361.179	1.2341
361.391	1.10325
361.604	0.80333
361.816	1.15067
362.029	0.93211
362.241	0.80046
362.454	0.98149
362.666	0.75901
362.879	1.4638
363.091	1.17647
363.304	0.86174
363.516	1.35262
363.728	0.64722
363.941	1.78387
364.153	1.08514
364.366	-0.10983
364.578	0.73461
364.79	1.67832
365.003	1.38899
365.215	1.02119
365.427	1.84203
365.639	2.25635
365.852	1.49472
366.064	3.17436
366.276	1.21872
366.488	1.85234
366.701	1.16777
366.913	1.35881
367.125	1.23239
367.337	0.85488
367.549	1.11525
367.762	1.56885
367.974	1.54642
368.186	0.89253
368.398	2.09548
368.61	1.92718
368.822	2.00371
369.034	1.45975
369.246	1.95254
369.458	3.69187
369.67	0.8533
369.882	2.83586
370.094	0.1763
370.306	2.75255
370.518	1.25824
370.73	0.9723
370.942	1.01775
371.154	1.37816
371.366	1.09256
371.578	1.71034
371.79	0.9704
372.002	2.23825
372.214	2.75638
372.425	1.50963
372.637	2.40493
372.849	1.7856
373.061	0.05151
373.273	1.8144
373.484	1.73242
373.696	2.15099
373.908	0.02524
374.12	2.40137
374.331	1.76296
374.543	1.03889
374.755	0.9536
374.967	1.6097
375.178	1.97712
375.39	1.29438
375.602	1.68767
375.813	0.52168
376.025	0.73537
376.236	1.65769
376.448	1.77025
376.66	1.27695
376.871	1.14171
377.083	2.42948
377.294	2.44419
377.506	1.22033
377.717	2.41701
377.929	1.73548
378.14	1.08242
378.352	1.8702
378.563	1.71692
378.775	2.47017
378.986	0.90586
379.197	1.57233
379.409	1.12448
379.62	2.14397
379.832	1.95994
380.043	1.43031
380.254	1.71784
380.466	0.89392
380.677	3.60924
380.888	3.02747
381.1	3.3721
381.311	3.38016
381.522	1.6498
381.733	3.6901
381.945	1.53743
382.156	1.77346
382.367	1.30387
382.578	3.67653
382.789	3.56736
383.001	1.46117
383.212	2.49546
383.423	2.83981
383.634	2.57804
383.845	2.30612
384.056	1.42765
384.267	1.92357
384.478	1.73359
384.69	1.09423
384.901	2.06705
385.112	2.07231
385.323	2.95819
385.534	2.17349
385.745	2.06433
385.956	2.1325
386.167	1.26042
386.378	2.25894
386.588	1.21384
386.799	1.53367
387.01	0.8814
387.221	2.55034
387.432	1.91306
387.643	3.15198
387.854	1.80127
388.065	1.68727
388.275	1.8427
388.486	1.77723
388.697	1.85537
388.908	1.75821
389.119	2.81117
389.329	3.17041
389.54	2.0827
389.751	2.36764
389.962	3.0173
390.172	2.26704
390.383	1.97862
390.594	1.72864
390.804	1.71385
391.015	1.80247
391.226	2.23505
391.436	2.52477
391.647	2.44565
391.858	2.70018
392.068	1.21329
392.279	1.47945
392.489	2.37461
392.7	3.08955
392.91	1.72313
393.121	1.89926
393.331	2.68227
393.542	3.16615
393.752	2.78247
393.963	2.79409
394.173	2.58584
394.384	2.79764
394.594	2.58362
394.804	1.81314
395.015	2.60296
395.225	2.89259
395.436	1.94935
395.646	2.95546
395.856	2.1112
396.067	1.80068
396.277	3.25851
396.487	2.96286
396.697	2.91389
396.908	3.1549
397.118	3.16726
397.328	2.99015
397.538	3.45965
397.749	2.29636
397.959	3.34879
398.169	3.34087
398.379	2.03657
398.589	3.3553
398.8	3.00601
399.01	3.04509
399.22	2.86299
399.43	4.4347
399.64	2.96217
399.85	3.56708
400.06	3.22134
400.27	2.5986
400.48	3.11523
400.69	4.19372
400.9	2.86225
401.11	2.63904
401.32	3.78298
401.53	2.99222
401.74	4.35176
401.95	3.80576
402.16	2.94784
402.37	3.62636
402.58	3.13997
402.79	3.8862
403	4.23262
403.209	3.2407
403.419	4.2844
403.629	3.11472
403.839	4.21458
404.049	4.22901
404.258	3.31924
404.468	3.31116
404.678	3.91987
404.888	4.45583
405.097	3.45865
405.307	3.71229
405.517	4.1553
405.727	4.05079
405.936	3.71254
406.146	4.03092
406.356	4.71321
406.565	3.80972
406.775	3.6105
406.984	3.60699
407.194	5.02812
407.404	4.00166
407.613	4.39874
407.823	4.58526
408.032	4.81949
408.242	4.7914
408.451	3.79702
408.661	4.07021
408.87	5.40928
409.08	3.79968
409.289	4.5428
409.499	4.51318
409.708	4.42296
409.918	3.20991
410.127	4.57381
410.336	5.47976
410.546	4.95375
410.755	4.17375
410.964	4.34364
411.174	3.89338
411.383	4.87075
411.592	4.74616
411.802	3.99406
412.011	4.98766
412.22	4.43407
412.429	5.64488
412.639	5.47128
412.848	5.26394
413.057	5.46433
413.266	5.53453
413.475	4.92617
413.685	5.21588
413.894	5.48793
414.103	5.68715
414.312	5.46087
414.521	4.76801
414.73	5.0788
414.939	6.41446
415.148	5.51979
415.357	5.34804
415.566	5.03329
415.776	5.02572
415.985	5.11253
416.194	5.82677
416.403	6.46718
416.611	4.57221
416.82	5.18064
417.029	5.63875
417.238	5.21631
417.447	5.12814
417.656	5.49755
417.865	5.18138
418.074	5.64335
418.283	5.73119
418.492	6.30735
418.7	6.1107
418.909	7.02542
419.118	6.15672
419.327	6.51349
419.536	6.31262
419.744	6.32907
419.953	7.46071
420.162	7.61731
420.371	6.98562
420.579	7.27772
420.788	8.15306
420.997	8.15354
421.205	8.41356
421.414	8.18764
421.623	8.19658
421.831	7.80029
422.04	8.38157
422.249	7.51785
422.457	7.93902
422.666	7.24373
422.874	8.07305
423.083	8.23598
423.291	8.32212
423.5	8.21395
423.708	8.56003
423.917	8.91573
424.125	8.44658
424.334	8.34163
424.542	9.81314
424.751	9.18773
424.959	8.90491
425.167	8.95022
425.376	8.82213
425.584	7.79725
425.793	7.79724
426.001	7.04793
426.209	7.23949
426.418	6.39278
426.626	6.21276
426.834	6.09749
