Data from WindowProjectSample_Transmission__82__00082.txt Node

Date: Sat May 03 18:07:04 EDT 2025
User: jessi
Spectrometer: SR400872
Trigger mode: 0
Integration Time (sec): 5.000010E-1
Scans to average: 6
Electric dark correction enabled: true
Nonlinearity correction enabled: true
Boxcar width: 0
XAxis mode: Wavelengths
Number of Pixels in Spectrum: 3648
>>>>>Begin Spectral Data<<<<<
184.909	3487.50553
185.132	4016.21499
185.355	-4165.42261
185.578	4223.51134
185.801	-317.27426
186.024	-4983.66592
186.247	1854.41205
186.47	514.57948
186.693	-49.06124
186.916	4573.43229
187.139	3075.71872
187.362	-2118.45448
187.585	5393.98568
187.808	28496.86546
188.031	-36.01295
188.254	-4075.66037
188.476	801.66978
188.699	3391.629
188.922	-230.37917
189.145	-6987.40327
189.368	-328.03424
189.591	-745.81045
189.813	-3133.62602
190.036	970.63577
190.259	-8902.36189
190.482	1279.58999
190.705	3899.71576
190.927	-2026.51036
191.15	-6738.1342
191.373	6202.4333
191.595	-1201.85368
191.818	2034.04792
192.041	-594.7713
192.263	2014.62834
192.486	-2142.80484
192.709	-23205.21052
192.931	1761.24104
193.154	-3736.73031
193.377	-2435.90342
193.599	4309.9867
193.822	1817.03442
194.044	5320.82822
194.267	921.55632
194.489	-297.26488
194.712	2580.15299
194.934	8464.96858
195.157	-24481.33262
195.379	2439.51356
195.602	1713.29508
195.824	1415.87094
196.047	46109.74009
196.269	3259.65074
196.492	-1815.03261
196.714	-1277.17826
196.936	1802.08203
197.159	-11912.39834
197.381	-412.53281
197.604	-4346.39415
197.826	-16350.24323
198.048	9530.42573
198.271	-8380.28105
198.493	4100.57487
198.715	3729.21959
198.938	-718.4954
199.16	-18148.72741
199.382	1171.63811
199.604	-1687.06962
199.827	-3318.31556
200.049	2635.61602
200.271	-7445.98895
200.493	-48390.06606
200.715	3740.97861
200.938	-3036.92044
201.16	-2624.56266
201.382	-1662.73412
201.604	-3357.87024
201.826	3176.43725
202.048	3454.12324
202.27	-1188.70424
202.492	-3331.75014
202.715	-1386.30193
202.937	-17921.88412
203.159	2489.91149
203.381	2327.91101
203.603	-2878.69351
203.825	-967.28116
204.047	54304.86166
204.269	-1447.13594
204.491	-1231.12226
204.713	65088.43411
204.935	-3293.66825
205.156	-805.11001
205.378	-4459.11498
205.6	-1186.66879
205.822	2330.0303
206.044	-371.22284
206.266	6241.63017
206.488	822.18924
206.71	3439.72446
206.932	1753.84535
207.153	-1602.22551
207.375	-2639.79847
207.597	3742.59066
207.819	29299.82892
208.041	4135.37144
208.262	-1999.44143
208.484	-1033.57283
208.706	-1448.23671
208.927	3199.44772
209.149	5017.07891
209.371	-5171.67581
209.593	511.51175
209.814	-31471.17256
210.036	2278.16387
210.258	-714.94121
210.479	3903.37094
210.701	-3124.29841
210.922	-11365.40968
211.144	-932.41134
211.366	5062.44041
211.587	-2274.26711
211.809	-4524.32942
212.03	-842.6183
212.252	-557.71779
212.473	3959.48065
212.695	-712.54848
212.916	-918.55545
213.138	695.85359
213.359	-1402.47158
213.581	12269.73802
213.802	-2123.47191
214.024	-2355.91677
214.245	-6092.48705
214.466	-383.87245
214.688	-3029.87555
214.909	-19251.22269
215.131	-4353.28323
215.352	-2064.91683
215.573	11222.24488
215.795	1596.0665
216.016	6374.90266
216.237	-579.03258
216.459	6433.66578
216.68	-3259.2651
216.901	-2857.33041
217.122	-2056.5108
217.344	-7402.78269
217.565	-2978.59533
217.786	2243.72014
218.007	1649.30272
218.228	-532.46619
218.45	-4243.22867
218.671	1469.54916
218.892	3821.89771
219.113	1723.38828
219.334	195.36991
219.555	-7696.81655
219.776	11863.37564
219.997	3936.37383
220.219	1899.66587
220.44	1118.76496
220.661	1091.7494
220.882	-2717.38946
221.103	-1142.70829
221.324	2400.0241
221.545	3061.64343
221.766	-3535.71394
221.987	-576.29327
222.208	-10302.1474
222.429	175118.29066
222.65	-248.04799
222.87	-9870.54608
223.091	2416.59401
223.312	-1289.64019
223.533	2483.49834
223.754	2104.71302
223.975	2733.52138
224.196	-5949.71718
224.417	-2690.30684
224.637	7589.1953
224.858	1739.78526
225.079	1339.52123
225.3	1050.40134
225.521	4840.24416
225.741	903.25833
225.962	1200.24768
226.183	-412.2493
226.404	1468.23344
226.624	1127.88874
226.845	1722.67004
227.066	913.03877
227.286	578.11918
227.507	202.28891
227.728	192.2589
227.948	289.48939
228.169	94.67342
228.389	92.08122
228.61	45.8771
228.831	64.00175
229.051	7.34008
229.272	37.758
229.492	48.6961
229.713	16.75242
229.933	39.11239
230.154	33.15525
230.374	56.02473
230.595	39.95858
230.815	26.16744
231.036	36.11875
231.256	-2.30406
231.477	76.23048
231.697	44.31716
231.917	47.45922
232.138	67.20056
232.358	130.06956
232.579	121.27343
232.799	23.2617
233.019	111.59539
233.24	142.98892
233.46	47.65625
233.68	72.53876
233.901	50.89827
234.121	32.30207
234.341	10.54059
234.561	-7.14959
234.782	25.48599
235.002	79.52719
235.222	-1.18616
235.442	69.59987
235.662	34.63882
235.883	77.8429
236.103	63.80794
236.323	41.49928
236.543	34.2461
236.763	47.2724
236.983	46.13152
237.203	50.64619
237.423	72.81109
237.643	109.24632
237.864	91.70829
238.084	23.91986
238.304	38.60816
238.524	59.8098
238.744	46.49661
238.964	82.05702
239.184	71.45949
239.404	72.97518
239.624	38.48071
239.843	63.65131
240.063	39.41433
240.283	24.03551
240.503	27.59421
240.723	26.28837
240.943	13.68851
241.163	20.67322
241.383	16.09194
241.603	7.35466
241.822	9.34942
242.042	7.27325
242.262	8.41399
242.482	9.58561
242.702	11.16897
242.921	3.66167
243.141	8.11391
243.361	6.76494
243.581	9.21989
243.8	8.93567
244.02	5.97949
244.24	11.02131
244.459	11.43889
244.679	20.20975
244.899	14.09326
245.118	15.61165
245.338	12.26005
245.558	16.38128
245.777	9.17686
245.997	10.85384
246.216	10.95353
246.436	5.95074
246.655	4.48482
246.875	3.5011
247.094	6.98725
247.314	2.20449
247.533	3.50406
247.753	4.61772
247.972	3.93957
248.192	1.34155
248.411	2.25825
248.631	4.29353
248.85	5.2641
249.07	4.06832
249.289	6.66828
249.508	5.00736
249.728	8.1885
249.947	8.99613
250.166	9.32685
250.386	5.10231
250.605	7.94935
250.824	11.85138
251.044	7.72356
251.263	27.95661
251.482	14.49627
251.701	12.96581
251.921	-0.07782
252.14	4.62262
252.359	4.81403
252.578	11.26916
252.798	4.00462
253.017	10.14731
253.236	5.1375
253.455	6.20032
253.674	13.17091
253.893	5.87948
254.112	8.37922
254.331	13.17082
254.551	11.2946
254.77	4.81463
254.989	15.29611
255.208	14.28646
255.427	15.92695
255.646	15.28165
255.865	23.62426
256.084	9.48001
256.303	11.91683
256.522	15.66174
256.741	2.7673
256.96	4.49324
257.179	9.93777
257.397	12.44578
257.616	5.69751
257.835	6.36686
258.054	15.94973
258.273	10.07282
258.492	11.99719
258.711	7.40242
258.93	2.95865
259.148	4.09978
259.367	4.58848
259.586	6.16254
259.805	2.68912
260.023	5.27623
260.242	4.1181
260.461	2.99002
260.68	1.49259
260.898	4.75579
261.117	1.555
261.336	1.17736
261.554	4.23018
261.773	4.07735
261.992	0.75023
262.21	4.16361
262.429	5.02556
262.648	8.40431
262.866	9.24672
263.085	5.63958
263.303	5.17536
263.522	9.7587
263.74	10.11125
263.959	16.13676
264.178	8.52989
264.396	7.09878
264.615	5.42806
264.833	13.1515
265.051	11.01382
265.27	11.3582
265.488	11.87928
265.707	7.53544
265.925	12.2451
266.144	5.49509
266.362	6.96263
266.58	6.88626
266.799	5.58856
267.017	6.90475
267.235	6.03086
267.454	3.80241
267.672	2.08493
267.89	4.65898
268.109	5.45443
268.327	5.04316
268.545	1.04833
268.763	4.66246
268.982	1.92456
269.2	5.5095
269.418	3.58554
269.636	2.40688
269.854	5.03491
270.073	4.05497
270.291	1.86092
270.509	2.38313
270.727	4.90607
270.945	8.01152
271.163	7.87938
271.381	2.07884
271.599	3.25747
271.817	6.06497
272.036	2.37101
272.254	3.30189
272.472	2.77486
272.69	2.83272
272.908	2.58592
273.126	4.69668
273.344	5.8525
273.562	2.17978
273.779	2.7343
273.997	4.27789
274.215	5.26582
274.433	3.43977
274.651	5.00889
274.869	5.06048
275.087	2.94328
275.305	4.82917
275.523	2.63007
275.74	3.57081
275.958	6.18446
276.176	8.91306
276.394	2.78797
276.612	3.7026
276.829	3.93392
277.047	2.91879
277.265	3.63776
277.483	4.14012
277.7	4.82194
277.918	3.96122
278.136	7.04843
278.353	3.56911
278.571	1.81518
278.789	6.05975
279.006	1.39208
279.224	2.88213
279.442	5.75974
279.659	4.17225
279.877	2.62507
280.094	5.73204
280.312	1.27483
280.529	3.93787
280.747	0.97739
280.964	2.94541
281.182	6.36515
281.399	3.2641
281.617	4.57842
281.834	2.87758
282.052	2.92491
282.269	3.67672
282.487	2.9681
282.704	2.2297
282.921	2.78297
283.139	3.44341
283.356	4.72389
283.574	3.97809
283.791	2.15768
284.008	6.07584
284.226	3.1877
284.443	3.54009
284.66	4.74739
284.877	3.81468
285.095	2.43026
285.312	1.98153
285.529	1.21029
285.746	0.9273
285.964	2.23238
286.181	1.46815
286.398	2.22505
286.615	3.00954
286.832	2.98958
287.05	0.88928
287.267	1.93515
287.484	2.1761
287.701	3.2324
287.918	2.78181
288.135	3.21336
288.352	1.41374
288.569	1.67275
288.786	2.6733
289.003	2.03446
289.22	3.11479
289.437	1.83165
289.654	3.25913
289.871	3.40932
290.088	3.2108
290.305	2.61965
290.522	1.98255
290.739	2.50207
290.956	3.42177
291.173	4.35195
291.39	3.87701
291.607	2.64908
291.824	2.20917
292.04	1.31086
292.257	3.41407
292.474	3.6425
292.691	2.42474
292.908	1.14514
293.125	2.29107
293.341	1.27399
293.558	5.86061
293.775	2.48097
293.992	2.33871
294.208	0.85644
294.425	1.53966
294.642	2.10683
294.858	2.84651
295.075	0.91087
295.292	2.21694
295.508	2.96753
295.725	4.30609
295.942	2.44478
296.158	2.26342
296.375	3.11715
296.591	2.45985
296.808	2.95436
297.024	3.69143
297.241	3.67566
297.458	4.08055
297.674	1.78614
297.891	3.50024
298.107	3.71326
298.323	2.91124
298.54	5.17133
298.756	3.55852
298.973	2.78094
299.189	5.47904
299.406	3.94032
299.622	5.3623
299.838	5.549
300.055	5.05796
300.271	3.59812
300.487	3.57081
300.704	4.37838
300.92	3.55455
301.136	7.47827
301.353	5.96092
301.569	5.06151
301.785	5.45766
302.001	6.06709
302.218	5.76703
302.434	6.12431
302.65	4.28315
302.866	5.04733
303.083	8.02971
303.299	7.9917
303.515	5.99077
303.731	6.55424
303.947	4.74767
304.163	5.85373
304.379	6.41177
304.595	6.64447
304.812	5.6599
305.028	5.42333
305.244	5.73858
305.46	6.85458
305.676	7.48561
305.892	7.77756
306.108	7.21164
306.324	6.19378
306.54	8.68154
306.756	7.06783
306.972	6.71927
307.187	6.86287
307.403	7.73755
307.619	6.11806
307.835	7.50614
308.051	8.00281
308.267	5.8159
308.483	8.51966
308.699	7.49752
308.914	7.21461
309.13	7.0151
309.346	6.36379
309.562	6.51984
309.778	6.1724
309.993	8.01527
310.209	8.05145
310.425	6.54433
310.641	7.82196
310.856	7.17357
311.072	7.04925
311.288	7.59777
311.503	8.43287
311.719	6.27674
311.935	6.73592
312.15	8.93031
312.366	8.64876
312.581	8.49077
312.797	8.71929
313.013	8.83288
313.228	7.5985
313.444	7.4859
313.659	7.02253
313.875	8.06875
314.09	7.71715
314.306	8.76244
314.521	8.45692
314.737	8.23319
314.952	8.06452
315.168	8.15705
315.383	8.45477
315.599	7.18822
315.814	7.82895
316.029	8.19171
316.245	7.36153
316.46	5.87388
316.675	8.80404
316.891	9.81991
317.106	10.58248
317.321	8.00168
317.537	8.63137
317.752	9.10418
317.967	8.85578
318.183	7.19981
318.398	7.40544
318.613	9.00354
318.828	9.45187
319.043	8.63539
319.259	7.6546
319.474	8.17779
319.689	9.27338
319.904	5.9725
320.119	9.19368
320.334	7.88149
320.549	8.00568
320.765	9.53756
320.98	8.53124
321.195	8.30979
321.41	8.31224
321.625	8.69394
321.84	9.58257
322.055	9.31725
322.27	7.24186
322.485	6.51522
322.7	8.55432
322.915	9.25785
323.13	7.85215
323.345	10.14099
323.56	9.65756
323.775	9.13513
323.989	8.99848
324.204	8.6297
324.419	9.6067
324.634	7.30408
324.849	8.57286
325.064	10.93196
325.279	9.98967
325.493	9.22264
325.708	9.40353
325.923	7.96794
326.138	8.73696
326.352	10.10441
326.567	9.43715
326.782	8.40975
326.997	8.55334
327.211	9.29425
327.426	9.05862
327.641	8.50432
327.855	7.38392
328.07	9.53147
328.285	11.06546
328.499	8.00597
328.714	9.23399
328.928	8.95945
329.143	8.80815
329.358	10.03264
329.572	9.50982
329.787	10.67557
330.001	11.40659
330.216	6.78939
330.43	11.35868
330.645	9.96566
330.859	9.63197
331.074	7.70616
331.288	8.94573
331.503	10.87503
331.717	7.53544
331.931	8.94448
332.146	9.60001
332.36	11.05991
332.575	9.40797
332.789	8.88947
333.003	9.44634
333.218	9.84284
333.432	9.02894
333.646	10.03841
333.86	11.30095
334.075	10.98131
334.289	8.89189
334.503	7.82391
334.717	10.51361
334.932	9.48554
335.146	9.68824
335.36	8.12842
335.574	9.78533
335.788	8.80757
336.003	9.57279
336.217	9.73554
336.431	8.9413
336.645	8.34851
336.859	7.91098
337.073	9.12305
337.287	9.69699
337.501	8.30979
337.715	10.56425
337.929	10.23734
338.143	9.22326
338.357	9.51259
338.571	9.74573
338.785	10.89729
338.999	9.51668
339.213	9.36055
339.427	8.69932
339.641	10.77223
339.855	8.96497
340.069	8.57335
340.283	10.39205
340.497	11.10507
340.711	10.45119
340.924	9.81343
341.138	9.06161
341.352	8.27557
341.566	9.97175
341.78	8.59294
341.993	9.40704
342.207	9.20033
342.421	10.25006
342.635	9.8293
342.848	9.65511
343.062	7.3435
343.276	9.41022
343.49	11.61828
343.703	9.21791
343.917	10.84371
344.131	11.13637
344.344	9.23914
344.558	9.41012
344.771	8.46783
344.985	11.2056
345.199	11.85421
345.412	10.40332
345.626	10.62713
345.839	8.6445
346.053	9.08723
346.266	9.15428
346.48	10.62669
346.693	10.30594
346.907	10.56845
347.12	9.21288
347.334	9.92916
347.547	10.5225
347.76	10.09359
347.974	10.95603
348.187	10.2621
348.401	10.17425
348.614	8.8816
348.827	9.8824
349.041	10.20462
349.254	8.69859
349.467	9.73385
349.681	9.33145
349.894	9.09001
350.107	11.45376
350.32	12.0742
350.534	9.01432
350.747	9.77653
350.96	9.43486
351.173	9.50288
351.386	9.9955
351.6	9.53972
351.813	9.91187
352.026	9.98889
352.239	9.57784
352.452	9.60564
352.665	11.32395
352.878	9.77523
353.092	12.47813
353.305	10.86509
353.518	10.51296
353.731	9.2243
353.944	11.33535
354.157	9.90168
354.37	10.04059
354.583	8.91523
354.796	9.64795
355.009	11.12845
355.222	10.71358
355.435	10.71577
355.647	11.75633
355.86	10.07875
356.073	10.83861
356.286	9.97703
356.499	11.59189
356.712	11.65207
356.925	11.26715
357.138	11.55322
357.35	10.19277
357.563	10.27235
357.776	11.04373
357.989	10.96499
358.201	11.67554
358.414	11.1731
358.627	12.21543
358.84	10.88052
359.052	10.14752
359.265	10.25114
359.478	11.87432
359.69	8.91021
359.903	11.90432
360.116	12.08631
360.328	9.93482
360.541	11.76304
360.753	10.93145
360.966	11.01807
361.179	11.31722
361.391	11.1636
361.604	10.80156
361.816	10.88673
362.029	11.07122
362.241	10.80994
362.454	11.28256
362.666	10.63326
362.879	11.87924
363.091	11.13287
363.304	10.93055
363.516	11.01255
363.728	10.21405
363.941	11.7318
364.153	11.85781
364.366	9.87536
364.578	10.56262
364.79	11.8074
365.003	11.86515
365.215	11.00739
365.427	12.21282
365.639	12.17759
365.852	11.68666
366.064	12.65886
366.276	11.52206
366.488	11.8559
366.701	11.48818
366.913	11.19057
367.125	11.38351
367.337	10.95967
367.549	11.15988
367.762	11.16911
367.974	11.57378
368.186	11.40915
368.398	12.33354
368.61	11.65657
368.822	12.16634
369.034	11.21359
369.246	12.56217
369.458	13.56996
369.67	10.99208
369.882	12.91018
370.094	9.92992
370.306	12.47856
370.518	11.54525
370.73	11.39287
370.942	11.38856
371.154	11.52192
371.366	11.65257
371.578	12.25725
371.79	11.60203
372.002	12.77418
372.214	13.63148
372.425	11.65547
372.637	13.27193
372.849	12.16891
373.061	10.31521
373.273	12.2448
373.484	12.48436
373.696	12.60725
373.908	10.26505
374.12	12.4058
374.331	12.74051
374.543	11.14834
374.755	11.1776
374.967	11.94156
375.178	13.07701
375.39	11.60145
375.602	12.26315
375.813	10.88217
376.025	11.33442
376.236	12.17875
376.448	12.6609
376.66	12.23772
376.871	12.35063
377.083	12.74128
377.294	13.69109
377.506	12.04282
377.717	13.2915
377.929	12.42524
378.14	12.28341
378.352	12.76077
378.563	12.907
378.775	13.40536
378.986	11.60403
379.197	12.41461
379.409	11.79279
379.62	12.84529
379.832	12.98589
380.043	12.39555
380.254	12.74691
380.466	11.37563
380.677	14.73074
380.888	14.07274
381.1	14.681
381.311	14.75839
381.522	12.94255
381.733	14.66651
381.945	12.54577
382.156	12.26313
382.367	12.42075
382.578	14.85616
382.789	15.09752
383.001	11.99357
383.212	14.47954
383.423	14.49512
383.634	13.64911
383.845	13.532
384.056	12.60111
384.267	12.84828
384.478	13.01122
384.69	12.05225
384.901	13.43259
385.112	13.08903
385.323	14.64675
385.534	13.26191
385.745	13.53075
385.956	13.1261
386.167	12.38875
386.378	13.40966
386.588	12.72345
386.799	12.35588
387.01	11.89476
387.221	13.71718
387.432	13.45143
387.643	14.10966
387.854	12.78211
388.065	12.95308
388.275	12.91726
388.486	12.6863
388.697	13.57765
388.908	12.73178
389.119	13.96265
389.329	14.01798
389.54	13.0642
389.751	13.68024
389.962	14.15498
390.172	13.1283
390.383	13.09891
390.594	12.77411
390.804	12.6102
391.015	12.72085
391.226	13.47618
391.436	13.71349
391.647	13.59445
391.858	13.74639
392.068	12.13203
392.279	12.81365
392.489	13.88756
392.7	13.96669
392.91	13.11596
393.121	12.98176
393.331	13.77684
393.542	14.36757
393.752	14.20062
393.963	13.94889
394.173	14.00841
394.384	14.20774
394.594	13.47976
394.804	12.71812
395.015	13.57775
395.225	14.08898
395.436	12.98762
395.646	13.79633
395.856	13.35302
396.067	12.38742
396.277	14.49501
396.487	14.01996
396.697	14.1699
396.908	14.30855
397.118	13.87885
397.328	13.67875
397.538	14.0455
397.749	13.15228
397.959	14.33856
398.169	13.94374
398.379	12.64878
398.589	13.62599
398.8	14.07216
399.01	13.88335
399.22	13.35532
399.43	15.25309
399.64	13.66679
399.85	14.22691
400.06	13.80431
400.27	13.09944
400.48	13.47828
400.69	14.63241
400.9	13.51222
401.11	12.95243
401.32	14.20668
401.53	13.409
401.74	14.61626
401.95	14.106
402.16	13.81947
402.37	13.95463
402.58	13.50402
402.79	14.02425
403	14.32898
403.209	13.16764
403.419	14.73984
403.629	13.51428
403.839	14.64134
404.049	14.46522
404.258	13.58949
404.468	13.58113
404.678	14.50871
404.888	14.84549
405.097	13.87311
405.307	13.89676
405.517	14.35881
405.727	14.22485
405.936	13.5484
406.146	14.19226
406.356	14.81516
406.565	13.89932
406.775	13.6437
406.984	13.52631
407.194	15.40285
407.404	13.97583
407.613	14.40778
407.823	14.66834
408.032	15.08812
408.242	14.45333
408.451	13.63521
408.661	14.04424
408.87	15.31052
409.08	13.29506
409.289	14.28445
409.499	14.36088
409.708	14.03971
409.918	12.60083
410.127	14.52592
410.336	15.38791
410.546	14.8353
410.755	13.93435
410.964	13.70469
411.174	13.4551
411.383	14.60833
411.592	14.41059
411.802	13.68146
412.011	14.54359
412.22	13.96181
412.429	14.77891
412.639	15.38036
412.848	14.80368
413.057	15.54512
413.266	14.68888
413.475	14.28049
413.685	14.44652
413.894	14.99532
414.103	14.86909
414.312	14.6315
414.521	13.97062
414.73	14.55144
414.939	15.67987
415.148	14.72437
415.357	14.48393
415.566	14.44228
415.776	14.35987
415.985	14.24432
416.194	15.00908
416.403	16.04698
416.611	13.4567
416.82	14.24003
417.029	14.73248
417.238	14.19008
417.447	14.07167
417.656	14.57887
417.865	14.58334
418.074	15.35551
418.283	16.2959
418.492	17.84476
418.7	17.54162
418.909	19.63739
419.118	18.17972
419.327	19.03403
419.536	18.9003
419.744	19.28684
419.953	21.12619
420.162	21.56424
420.371	20.97915
420.579	22.2758
420.788	23.04604
420.997	23.4161
421.205	23.80252
421.414	23.42394
421.623	23.87102
421.831	23.19246
422.04	23.60433
422.249	22.28282
422.457	22.48225
