Data from WindowProjectSample3_Transmission__32__00032.txt Node

Date: Sun May 04 10:33:27 EDT 2025
User: jessi
Spectrometer: SR400872
Trigger mode: 0
Integration Time (sec): 5.000050E-1
Scans to average: 20
Electric dark correction enabled: true
Nonlinearity correction enabled: true
Boxcar width: 0
XAxis mode: Wavelengths
Number of Pixels in Spectrum: 3648
>>>>>Begin Spectral Data<<<<<
184.909	-1608.30745
185.132	-1268.37604
185.355	-1286.03142
185.578	-1079.49765
185.801	-3480.42212
186.024	-1025.80219
186.247	-1393.13398
186.47	-2528.24678
186.693	-184.59327
186.916	-189.29936
187.139	-985.93712
187.362	-1771.63735
187.585	-978.2978
187.808	-876.19411
188.031	-258548.50624
188.254	-1311.15229
188.476	-987.873
188.699	-1092.65861
188.922	557.2901
189.145	-1236.37535
189.368	-920.83685
189.591	-3721.79645
189.813	-675.14712
190.036	-1226.1808
190.259	-3113.44186
190.482	-1590.80882
190.705	-1727.10952
190.927	-974.51313
191.15	-1599.97698
191.373	-2249.90641
191.595	-2541.89613
191.818	-1232.06798
192.041	-16118.73426
192.263	-1499.18192
192.486	-468.72947
192.709	-1678.0734
192.931	-4216.40377
193.154	-1206.57798
193.377	-1224.60787
193.599	12000.78049
193.822	-817.46528
194.044	-3887.93776
194.267	-4794.1876
194.489	-656.2357
194.712	-1766.30623
194.934	-1623.99238
195.157	-971.48679
195.379	-771.98794
195.602	-846.89299
195.824	-1039.52617
196.047	-889.03548
196.269	-1041.39215
196.492	-1078.24007
196.714	-1008.76582
196.936	-1530.87059
197.159	-901.2465
197.381	-880.20462
197.604	-1237.36314
197.826	-1991.05944
198.048	-1570.94809
198.271	-1190.26881
198.493	-1017.10141
198.715	-878.16547
198.938	-6221.1727
199.16	-1136.1302
199.382	-901.3877
199.604	-9326.92032
199.827	-1655.23653
200.049	-953.76728
200.271	-906.00446
200.493	-2214.11551
200.715	-968.08242
200.938	-773.64498
201.16	-1274.10988
201.382	-2575.56702
201.604	-1308.63355
201.826	-1261.65642
202.048	-553.5231
202.27	-820.52708
202.492	-1978.93878
202.715	-1968.46584
202.937	-2260.22444
203.159	-1231.86273
203.381	-1611.82225
203.603	-1306.13929
203.825	4341.89913
204.047	-1126.95794
204.269	-3133.27265
204.491	-1569.64536
204.713	-790.11505
204.935	-1252.16334
205.156	-1296.68515
205.378	-3932.013
205.6	-930.14383
205.822	-1115.63701
206.044	2535.47673
206.266	-1272.54261
206.488	-794.61936
206.71	-1912.62628
206.932	-2348.80953
207.153	-1181.88459
207.375	-904.89431
207.597	-1094.16988
207.819	-869.38338
208.041	-1337.99672
208.262	-945.86068
208.484	-1857.88438
208.706	-855.46309
208.927	-806.47615
209.149	-2165.73836
209.371	-783.90823
209.593	-722.12812
209.814	-601.14861
210.036	-766.49838
210.258	-557.44123
210.479	-1343.15891
210.701	11322.38643
210.922	-853.53774
211.144	-939.75187
211.366	-1949.21212
211.587	10927.25551
211.809	-986.81178
212.03	-3309.55787
212.252	1668.92984
212.473	-1075.13223
212.695	-4487.33814
212.916	-3024.86133
213.138	-5858.54968
213.359	-970.63299
213.581	-1574.17491
213.802	-962.2701
214.024	-1365.96263
214.245	-10961.1691
214.466	-716.53324
214.688	-1305.56763
214.909	-1533.60018
215.131	-1990.73947
215.352	-930.76436
215.573	-1222.96362
215.795	-3103.54026
216.016	-1105.1392
216.237	-4652.6298
216.459	-13759.27291
216.68	-1639.13268
216.901	-1442.70491
217.122	-3471.78296
217.344	-1241.0291
217.565	-1579.81296
217.786	-1428.41106
218.007	-1351.909
218.228	-4622.44234
218.45	-1162.34168
218.671	-1353.56812
218.892	-1741.69595
219.113	-2289.57979
219.334	-152.67815
219.555	-1326.87511
219.776	-849.48718
219.997	-1375.59612
220.219	-2648.8841
220.44	-1050.13472
220.661	-863.41546
220.882	-1001.23013
221.103	-3187.83586
221.324	5683.57784
221.545	-1875.1735
221.766	-1305.13139
221.987	-2192.42672
222.208	-2968.31886
222.429	-924.97538
222.65	-1633.38272
222.87	5079.64877
223.091	-8642.49376
223.312	4114.75893
223.533	-1693.81496
223.754	-1672.15106
223.975	-2416.26005
224.196	160546.83293
224.417	-10052.78309
224.637	2305.57543
224.858	245.8107
225.079	-7415.58375
225.3	2472.51074
225.521	-877.14779
225.741	8383.13719
225.962	6732.22653
226.183	261.132
226.404	8951.01873
226.624	1798.16795
226.845	7868.81348
227.066	1749.3955
227.286	719.82646
227.507	248.74226
227.728	272.43793
227.948	498.75081
228.169	136.23987
228.389	147.12123
228.61	84.57627
228.831	115.52728
229.051	9.60541
229.272	71.09252
229.492	104.81068
229.713	26.97632
229.933	69.76352
230.154	65.40771
230.374	105.45448
230.595	73.61729
230.815	48.03972
231.036	80.2474
231.256	-11.36759
231.477	119.66551
231.697	82.48594
231.917	82.12832
232.138	115.18618
232.358	252.30945
232.579	206.07465
232.799	34.07066
233.019	197.67551
233.24	231.54308
233.46	73.5777
233.68	124.12633
233.901	82.48479
234.121	55.5911
234.341	21.42554
234.561	-6.15337
234.782	41.09284
235.002	132.81373
235.222	-2.85512
235.442	128.11777
235.662	59.14114
235.883	120.5242
236.103	93.35294
236.323	70.88903
236.543	50.97712
236.763	78.62612
236.983	75.47666
237.203	76.37324
237.423	118.07431
237.643	177.88073
237.864	151.05493
238.084	40.4607
238.304	50.11429
238.524	86.22567
238.744	76.03795
238.964	132.87208
239.184	114.44303
239.404	119.12495
239.624	62.35781
239.843	105.5052
240.063	60.59967
240.283	37.83507
240.503	43.21618
240.723	43.33009
240.943	28.14419
241.163	34.96346
241.383	23.61301
241.603	12.94229
241.822	14.84836
242.042	10.95222
242.262	13.80398
242.482	15.1131
242.702	17.01812
242.921	5.43186
243.141	11.33967
243.361	10.92468
243.581	15.92526
243.8	13.78687
244.02	8.82473
244.24	16.08169
244.459	14.68686
244.679	32.67254
244.899	20.30678
245.118	22.64041
245.338	21.13467
245.558	23.84401
245.777	13.39558
245.997	15.39209
246.216	16.05984
246.436	9.17856
246.655	6.49979
246.875	5.58566
247.094	10.26816
247.314	3.72844
247.533	6.41832
247.753	7.04703
247.972	5.59353
248.192	2.41572
248.411	3.52508
248.631	5.83621
248.85	7.62755
249.07	7.24409
249.289	10.64667
249.508	7.63479
249.728	12.76472
249.947	12.21986
250.166	15.92477
250.386	7.68821
250.605	10.69125
250.824	20.56636
251.044	13.40987
251.263	39.1613
251.482	22.94949
251.701	19.04384
251.921	0.21827
252.14	6.14696
252.359	7.07182
252.578	16.88155
252.798	6.23451
253.017	14.53165
253.236	7.34764
253.455	9.95915
253.674	20.11708
253.893	9.32107
254.112	14.22291
254.331	20.77897
254.551	16.18913
254.77	8.34618
254.989	24.07467
255.208	17.69411
255.427	27.05758
255.646	22.45895
255.865	33.66621
256.084	15.62007
256.303	18.36002
256.522	21.64551
256.741	5.08533
256.96	5.60508
257.179	13.23392
257.397	17.88203
257.616	9.4237
257.835	10.20836
258.054	23.92028
258.273	16.77204
258.492	17.0666
258.711	10.39173
258.93	4.75423
259.148	7.14184
259.367	6.74023
259.586	8.55486
259.805	3.97426
260.023	7.3993
260.242	5.49074
260.461	4.53415
260.68	2.0743
260.898	6.76025
261.117	2.36578
261.336	1.64897
261.554	5.6787
261.773	5.96643
261.992	1.46352
262.21	5.49935
262.429	6.64775
262.648	11.18401
262.866	13.53165
263.085	9.39955
263.303	7.93953
263.522	14.17665
263.74	13.92818
263.959	23.37985
264.178	12.38856
264.396	11.63863
264.615	7.72179
264.833	17.7402
265.051	15.48658
265.27	16.74105
265.488	16.85244
265.707	10.191
265.925	16.32758
266.144	8.20035
266.362	8.86814
266.58	9.57645
266.799	7.33385
267.017	9.54148
267.235	8.49501
267.454	5.72602
267.672	3.13026
267.89	7.14665
268.109	7.08532
268.327	7.41338
268.545	1.58218
268.763	6.7295
268.982	2.89197
269.2	7.49554
269.418	4.93191
269.636	3.86817
269.854	7.28051
270.073	5.05298
270.291	3.23951
270.509	3.04367
270.727	6.84469
270.945	11.16465
271.163	10.7174
271.381	2.56916
271.599	4.53248
271.817	7.8068
272.036	2.76095
272.254	5.335
272.472	3.92973
272.69	3.8012
272.908	4.04009
273.126	6.25922
273.344	7.9773
273.562	3.13221
273.779	4.47301
273.997	7.03507
274.215	6.21678
274.433	4.6145
274.651	7.10418
274.869	7.02733
275.087	4.34873
275.305	6.64915
275.523	4.13471
275.74	5.00682
275.958	8.31849
276.176	12.14732
276.394	4.00574
276.612	5.49602
276.829	5.24944
277.047	4.76216
277.265	5.00702
277.483	5.61851
277.7	6.27808
277.918	5.27653
278.136	9.64307
278.353	4.81297
278.571	2.87716
278.789	7.52085
279.006	1.6336
279.224	4.77649
279.442	7.63201
279.659	5.70341
279.877	3.47792
280.094	8.03028
280.312	1.84253
280.529	5.7824
280.747	2.01036
280.964	4.56093
281.182	8.47129
281.399	4.66394
281.617	5.41201
281.834	3.77926
282.052	2.90376
282.269	5.05358
282.487	3.95964
282.704	3.55689
282.921	3.48978
283.139	5.07173
283.356	6.32705
283.574	6.01009
283.791	2.96091
284.008	7.93763
284.226	4.62171
284.443	5.10512
284.66	6.13001
284.877	5.54473
285.095	3.53894
285.312	2.50576
285.529	1.65938
285.746	1.24149
285.964	3.27728
286.181	2.06296
286.398	3.02214
286.615	4.29759
286.832	4.0334
287.05	1.10432
287.267	2.92661
287.484	2.93117
287.701	4.18596
287.918	4.016
288.135	4.08434
288.352	1.76442
288.569	2.30938
288.786	3.91426
289.003	2.85256
289.22	4.60163
289.437	2.63853
289.654	4.37458
289.871	4.46297
290.088	4.4357
290.305	3.48307
290.522	2.87182
290.739	3.14702
290.956	4.66265
291.173	5.48163
291.39	5.28958
291.607	3.61236
291.824	2.74045
292.04	2.09726
292.257	4.57744
292.474	5.04138
292.691	3.1768
292.908	1.61651
293.125	2.66984
293.341	1.63959
293.558	7.55988
293.775	3.22289
293.992	3.19004
294.208	1.3013
294.425	1.96842
294.642	2.88882
294.858	4.66122
295.075	1.19593
295.292	3.01301
295.508	3.62209
295.725	5.10897
295.942	2.64921
296.158	1.84922
296.375	3.14368
296.591	2.45855
296.808	2.43903
297.024	2.94204
297.241	3.18797
297.458	3.37059
297.674	0.37379
297.891	2.7621
298.107	2.21228
298.323	1.69035
298.54	3.93148
298.756	2.0046
298.973	0.84732
299.189	4.195
299.406	1.98635
299.622	4.3146
299.838	4.39391
300.055	3.8768
300.271	0.90527
300.487	1.53704
300.704	1.81005
300.92	1.16745
301.136	5.64287
301.353	4.36994
301.569	3.01106
301.785	3.21769
302.001	3.83533
302.218	3.59849
302.434	3.60455
302.65	1.17613
302.866	2.28765
303.083	5.76783
303.299	5.60261
303.515	2.92289
303.731	3.11597
303.947	1.13965
304.163	1.95371
304.379	3.12201
304.595	3.43647
304.812	2.13376
305.028	1.76518
305.244	2.51115
305.46	4.01373
305.676	3.84735
305.892	4.73349
306.108	3.49032
306.324	2.47608
306.54	5.45077
306.756	3.73231
306.972	3.65175
307.187	2.5269
307.403	4.99384
307.619	2.39709
307.835	4.35546
308.051	4.64756
308.267	1.56009
308.483	4.18368
308.699	3.63058
308.914	2.8031
309.13	2.85556
309.346	0.75259
309.562	1.5484
309.778	0.82957
309.993	3.51369
310.209	2.74494
310.425	1.30148
310.641	2.38785
310.856	1.47463
311.072	1.37341
311.288	2.72009
311.503	2.81778
311.719	0.69811
311.935	0.46493
312.15	3.04962
312.366	2.75986
312.581	3.25283
312.797	2.59042
313.013	3.67131
313.228	1.94379
313.444	2.76615
313.659	1.67866
313.875	3.22016
314.09	2.60644
314.306	4.95271
314.521	3.8024
314.737	3.64342
314.952	3.1692
315.168	2.81084
315.383	3.34547
315.599	2.57573
315.814	2.37053
316.029	4.00846
316.245	1.19879
316.46	0.78913
316.675	4.55399
316.891	5.23764
317.106	6.6056
317.321	3.80043
317.537	3.43911
317.752	3.82263
317.967	4.06536
318.183	1.95491
318.398	2.49522
318.613	4.25127
318.828	4.71357
319.043	4.12019
319.259	2.5516
319.474	3.12996
319.689	4.34135
319.904	0.63965
320.119	3.99879
320.334	3.35003
320.549	2.68081
320.765	4.44505
320.98	3.44913
321.195	4.16215
321.41	2.8084
321.625	4.00124
321.84	5.31785
322.055	5.18361
322.27	2.03555
322.485	1.64325
322.7	3.2328
322.915	4.34399
323.13	1.7396
323.345	4.77255
323.56	3.62782
323.775	3.88912
323.989	3.65303
324.204	3.16671
324.419	3.8911
324.634	1.29083
324.849	2.85225
325.064	5.37195
325.279	4.13473
325.493	3.54281
325.708	4.27797
325.923	1.94429
326.138	2.07119
326.352	4.94747
326.567	3.93614
326.782	2.56396
326.997	1.98815
327.211	3.64941
327.426	3.64576
327.641	2.57667
327.855	0.90827
328.07	3.73756
328.285	5.05667
328.499	2.63696
328.714	3.45833
328.928	3.75984
329.143	2.94172
329.358	4.4827
329.572	4.18838
329.787	4.53618
330.001	6.3394
330.216	1.54043
330.43	5.03014
330.645	5.24588
330.859	4.08291
331.074	2.13276
331.288	3.22795
331.503	5.02688
331.717	1.69751
331.931	2.983
332.146	3.15769
332.36	5.4994
332.575	3.71122
332.789	3.32134
333.003	2.67146
333.218	3.53809
333.432	2.09696
333.646	3.81753
333.86	4.88741
334.075	5.24732
334.289	2.24131
334.503	1.68574
334.717	3.63247
334.932	3.51847
335.146	4.34277
335.36	2.42969
335.574	3.87873
335.788	3.65213
336.003	4.23937
336.217	4.29374
336.431	3.7561
336.645	2.457
336.859	1.60463
337.073	2.84463
337.287	3.17544
337.501	1.74578
337.715	3.2543
337.929	3.61564
338.143	1.552
338.357	2.75585
338.571	1.89487
338.785	3.60332
338.999	2.32389
339.213	2.22637
339.427	1.34603
339.641	4.33841
339.855	2.59517
340.069	2.11936
340.283	4.16833
340.497	4.93679
340.711	3.39822
340.924	2.43323
341.138	1.83571
341.352	1.26832
341.566	3.06354
341.78	0.871
341.993	2.20034
342.207	1.68881
342.421	3.19099
342.635	2.66098
342.848	2.13731
343.062	0.2574
343.276	2.15532
343.49	5.35835
343.703	2.12977
343.917	3.81962
344.131	3.70576
344.344	1.91382
344.558	2.2074
344.771	1.74512
344.985	4.0309
345.199	4.61304
345.412	3.05874
345.626	3.02003
345.839	0.84219
346.053	1.52843
346.266	1.67198
346.48	3.45773
346.693	3.04708
346.907	3.09328
347.12	1.67066
347.334	2.96182
347.547	3.11197
347.76	2.20569
347.974	4.04425
348.187	3.14194
348.401	2.41885
348.614	1.82671
348.827	2.33619
349.041	3.21607
349.254	0.82405
349.467	2.53392
349.681	1.4709
349.894	2.06834
350.107	4.02511
350.32	4.60531
350.534	0.91894
350.747	2.23996
350.96	1.57003
351.173	1.83699
351.386	2.12644
351.6	2.08531
351.813	1.84024
352.026	2.57166
352.239	1.18399
352.452	2.31918
352.665	3.62087
352.878	2.3595
353.092	4.92581
353.305	3.287
353.518	2.68417
353.731	1.60917
353.944	3.70311
354.157	1.88339
354.37	1.66263
354.583	1.45257
354.796	0.68854
355.009	3.90411
355.222	2.59143
355.435	2.64591
355.647	3.60701
355.86	1.31859
356.073	2.37899
356.286	1.92637
356.499	3.28701
356.712	2.77407
356.925	2.73768
357.138	3.4045
357.35	1.3081
357.563	1.99451
357.776	2.50005
357.989	1.99897
358.201	2.91011
358.414	2.47747
358.627	3.5379
358.84	1.95297
359.052	1.16476
359.265	1.07403
359.478	3.41305
359.69	-0.3163
359.903	3.07596
360.116	2.99732
360.328	0.58147
360.541	3.09152
360.753	1.18536
360.966	1.57029
361.179	1.67058
361.391	1.58313
361.604	1.09606
361.816	1.63057
362.029	1.38334
362.241	1.13411
362.454	1.47139
362.666	1.26454
362.879	2.07296
363.091	1.65925
363.304	1.23711
363.516	1.96359
363.728	0.94027
363.941	2.63297
364.153	1.43303
364.366	-0.11269
364.578	0.9581
364.79	2.57127
365.003	1.87973
365.215	1.65989
365.427	2.49379
365.639	3.36031
365.852	2.32195
366.064	3.85432
366.276	1.42475
366.488	2.54316
366.701	1.62856
366.913	1.8608
367.125	1.92936
367.337	1.35529
367.549	1.55197
367.762	2.17611
367.974	2.0828
368.186	1.33703
368.398	3.20359
368.61	2.66341
368.822	2.82696
369.034	2.01814
369.246	2.60882
369.458	4.37816
369.67	1.04428
369.882	3.88622
370.094	0.20247
370.306	3.5924
370.518	1.66239
370.73	1.4857
370.942	1.26613
371.154	1.71271
371.366	1.50826
371.578	2.25199
371.79	1.25146
372.002	3.26842
372.214	3.81908
372.425	2.19616
372.637	3.23756
372.849	2.39812
373.061	-0.10119
373.273	2.54308
373.484	2.49129
373.696	2.84323
373.908	-0.12791
374.12	3.04166
374.331	2.364
374.543	1.28406
374.755	1.10965
374.967	2.19876
375.178	2.89456
375.39	1.77593
375.602	2.10087
375.813	0.7349
376.025	0.65621
376.236	1.77761
376.448	2.11438
376.66	1.45703
376.871	1.33212
377.083	2.74028
377.294	2.79409
377.506	1.34023
377.717	3.21977
377.929	2.01626
378.14	1.08707
378.352	2.44541
378.563	2.21263
378.775	3.0969
378.986	1.29581
379.197	2.08419
379.409	1.55179
379.62	2.6333
379.832	2.06836
380.043	1.67432
380.254	2.10235
380.466	0.69503
380.677	4.49529
380.888	4.07603
381.1	4.4195
381.311	4.10654
381.522	1.73911
381.733	4.76307
381.945	1.73417
382.156	2.12349
382.367	1.43119
382.578	4.46164
382.789	4.34859
383.001	1.44075
383.212	3.114
383.423	3.32858
383.634	2.95984
383.845	2.17372
384.056	1.44075
384.267	1.73961
384.478	1.74505
384.69	0.8187
384.901	2.33462
385.112	2.23701
385.323	3.27346
385.534	2.24727
385.745	2.00531
385.956	2.35975
386.167	0.90793
386.378	2.4185
386.588	0.59275
386.799	1.21647
387.01	0.26476
387.221	2.65815
387.432	1.68656
387.643	3.64299
387.854	1.62577
388.065	1.5681
388.275	1.66013
388.486	1.56621
388.697	1.68377
388.908	1.54799
389.119	2.95916
389.329	3.43383
389.54	1.87279
389.751	2.03325
389.962	3.1029
390.172	2.09349
390.383	1.23612
390.594	1.25043
390.804	1.18567
391.015	1.17775
391.226	1.79461
391.436	2.32832
391.647	2.08273
391.858	2.35998
392.068	0.27591
392.279	0.61696
392.489	1.74204
392.7	2.83072
392.91	0.74321
393.121	1.1842
393.331	2.13262
393.542	2.75692
393.752	2.16393
393.963	1.7872
394.173	1.67029
394.384	2.36876
394.594	1.69176
394.804	0.74808
395.015	1.90587
395.225	2.34491
395.436	0.71669
395.646	2.29834
395.856	0.91632
396.067	0.71801
396.277	2.76713
396.487	2.14449
396.697	1.81512
396.908	2.44719
397.118	2.54549
397.328	1.89217
397.538	2.72217
397.749	1.23528
397.959	2.66137
398.169	2.48405
398.379	0.65773
398.589	2.57983
398.8	1.8059
399.01	1.64048
399.22	1.55723
399.43	3.88277
399.64	1.42222
399.85	2.3438
400.06	1.61762
400.27	1.29241
400.48	1.77941
400.69	3.18388
400.9	1.37693
401.11	1.18055
401.32	2.68324
401.53	1.43962
401.74	3.35678
401.95	2.52816
402.16	0.86501
402.37	2.33662
402.58	1.30439
402.79	2.4814
403	2.73143
403.209	1.38213
403.419	2.46561
403.629	1.40956
403.839	2.44815
404.049	2.57108
404.258	1.02776
404.468	0.89394
404.678	2.3331
404.888	2.30153
405.097	0.87988
405.307	1.75443
405.517	2.18091
405.727	1.91171
405.936	1.47306
406.146	1.88829
406.356	3.02428
406.565	1.76627
406.775	1.37012
406.984	1.43463
407.194	3.19998
407.404	1.9614
407.613	2.19798
407.823	2.54998
408.032	2.94519
408.242	2.80776
408.451	1.52451
408.661	1.73903
408.87	3.56586
409.08	1.57974
409.289	2.28583
409.499	2.02908
409.708	2.01819
409.918	0.32427
410.127	1.83316
410.336	3.31133
410.546	2.49246
410.755	1.67992
410.964	1.51611
411.174	1.40479
411.383	2.39255
411.592	2.34467
411.802	1.12449
412.011	2.94045
412.22	2.01693
412.429	3.28575
412.639	3.01684
412.848	3.25647
413.057	3.4712
413.266	3.12646
413.475	1.97796
413.685	2.84542
413.894	2.78575
414.103	3.14575
414.312	2.70207
414.521	2.07395
414.73	2.30097
414.939	3.63226
415.148	2.57185
415.357	2.24945
415.566	1.67931
415.776	1.7144
415.985	1.50691
416.194	2.60321
416.403	3.25246
416.611	0.88991
416.82	1.45235
417.029	1.87814
417.238	1.26817
417.447	1.02644
417.656	1.2908
417.865	1.13059
418.074	1.24962
418.283	1.5113
418.492	2.07254
418.7	1.98564
418.909	2.48977
419.118	1.57456
419.327	1.75702
419.536	1.56586
419.744	0.96236
419.953	2.02414
420.162	2.02944
420.371	0.92213
420.579	0.72112
420.788	1.77123
420.997	1.70975
421.205	1.82016
421.414	1.42539
421.623	1.29932
421.831	1.03276
422.04	1.9205
422.249	1.02888
422.457	1.66861
422.666	1.06286
422.874	2.05739
423.083	1.99148
423.291	1.87791
423.5	1.47501
423.708	1.6957
423.917	2.02337
424.125	1.54903
424.334	1.22445
424.542	3.08497
424.751	2.24362
424.959	2.1507
425.167	2.28166
425.376	2.31239
425.584	1.61439
425.793	2.01547
