Data from WindowProjectSample3_Transmission__39__00039.txt Node

Date: Sun May 04 10:40:59 EDT 2025
User: jessi
Spectrometer: SR400872
Trigger mode: 0
Integration Time (sec): 5.000050E-1
Scans to average: 20
Electric dark correction enabled: true
Nonlinearity correction enabled: true
Boxcar width: 0
XAxis mode: Wavelengths
Number of Pixels in Spectrum: 3648
>>>>>Begin Spectral Data<<<<<
184.909	-1109.04962
185.132	-1361.26489
185.355	-1440.63879
185.578	-953.61833
185.801	638.82609
186.024	-1025.94033
186.247	1139.34061
186.47	-1018.31796
186.693	-312.9376
186.916	-729.41055
187.139	-801.48917
187.362	-938.24673
187.585	-936.89068
187.808	-727.29131
188.031	3056.97921
188.254	-2160.78914
188.476	-1123.97544
188.699	-1200.98246
188.922	821.23003
189.145	-948.94177
189.368	-2323.65564
189.591	-1540.21949
189.813	-1489.67809
190.036	-1079.83397
190.259	-1245.52251
190.482	-1539.02424
190.705	-1930.96602
190.927	-852.34709
191.15	-1174.87186
191.373	-1530.14577
191.595	-1534.26612
191.818	-1486.66295
192.041	-890.12341
192.263	-1188.67447
192.486	-505.49679
192.709	-1311.62383
192.931	-3106.07181
193.154	-1333.10515
193.377	-1273.03448
193.599	-1959.37357
193.822	-1643.67472
194.044	-1461.64629
194.267	-1348.6767
194.489	203.94094
194.712	-1265.20797
194.934	-1595.00281
195.157	-607.34112
195.379	-1626.49278
195.602	-801.37989
195.824	-1424.85127
196.047	-2088.96538
196.269	-1067.12899
196.492	-1375.27766
196.714	-768.72541
196.936	-1378.90836
197.159	-988.61522
197.381	-800.92895
197.604	-679.22419
197.826	-1373.26258
198.048	-1291.40545
198.271	-1000.0438
198.493	-1126.95128
198.715	-807.26023
198.938	-1042.61647
199.16	-2807.05641
199.382	-1250.66299
199.604	-925.09922
199.827	-1136.55491
200.049	-1583.15467
200.271	-1083.31455
200.493	-2245.2936
200.715	-1031.0221
200.938	-846.45286
201.16	-925.9942
201.382	-4351.46996
201.604	-1740.19181
201.826	-826.95773
202.048	-844.87284
202.27	-2122.05397
202.492	-2116.63633
202.715	-2229.6348
202.937	-2526.53112
203.159	-1871.64095
203.381	-2883.99449
203.603	-1070.66091
203.825	-6817.90504
204.047	-1159.52663
204.269	-1821.70484
204.491	-1431.34381
204.713	-960.74747
204.935	-1140.72482
205.156	-1346.12905
205.378	-1399.05852
205.6	-992.86565
205.822	-1006.86434
206.044	2416.10833
206.266	-2657.347
206.488	-803.6993
206.71	-1901.2226
206.932	-1345.29607
207.153	-1011.7571
207.375	-880.38901
207.597	-1084.92562
207.819	-829.43867
208.041	-1511.51032
208.262	-3539.08968
208.484	-2435.99927
208.706	-2296.19269
208.927	-3294.48688
209.149	-1334.33458
209.371	-1233.50572
209.593	-9963.79278
209.814	-760.60592
210.036	-4307.41315
210.258	-1462.47808
210.479	-1248.11048
210.701	-2341.60583
210.922	-2599.76561
211.144	-2224.63818
211.366	-2470.52564
211.587	2884.42126
211.809	-1188.59131
212.03	-3366.30074
212.252	-3174.52238
212.473	-1064.35169
212.695	-1158.23999
212.916	-9306.81268
213.138	-7401.52819
213.359	-997.69469
213.581	-2422.10978
213.802	-8293.7059
214.024	-1459.98971
214.245	99006.53874
214.466	2516.02135
214.688	-1205.16636
214.909	-775.35712
215.131	-2463.7987
215.352	-1751.88668
215.573	-1237.25394
215.795	-1388.18131
216.016	-2353.24364
216.237	2913.93695
216.459	-1784.24041
216.68	-2171.86289
216.901	-1131.03943
217.122	-1321.74728
217.344	-1117.10821
217.565	-1325.6199
217.786	-1264.30725
218.007	-1532.0838
218.228	-921.89709
218.45	-786.00583
218.671	-5515.31203
218.892	-1030.32091
219.113	-2031.97216
219.334	-143.5254
219.555	-1191.49519
219.776	-1113.31178
219.997	-1250.94219
220.219	-1098.6827
220.44	-1525.07953
220.661	-769.49772
220.882	-1466.37304
221.103	-3643.14156
221.324	-2347.73408
221.545	-2159.27494
221.766	-1127.26903
221.987	-2690.48023
222.208	-1016.58405
222.429	-946.01113
222.65	5361.90726
222.87	6156.87606
223.091	-2705.12896
223.312	-2581.27568
223.533	-2061.71995
223.754	-1158.23357
223.975	-3429.41592
224.196	-7488.75742
224.417	-1838.32165
224.637	1695.94796
224.858	163.34492
225.079	-2749.41547
225.3	3148.82185
225.521	-837.26739
225.741	30024.61069
225.962	-1937.60958
226.183	556.86722
226.404	-3672.76201
226.624	-5130.55998
226.845	9299.20841
227.066	-6234.90332
227.286	1340.28012
227.507	350.5287
227.728	384.94757
227.948	941.3
228.169	242.27941
228.389	244.48994
228.61	133.56213
228.831	178.30122
229.051	17.34354
229.272	99.62037
229.492	134.75125
229.713	38.11657
229.933	86.91706
230.154	74.88649
230.374	135.93089
230.595	95.31905
230.815	60.85793
231.036	93.2354
231.256	-14.43638
231.477	167.00796
231.697	105.158
231.917	100.4734
232.138	145.23288
232.358	327.73022
232.579	262.32388
232.799	49.58095
233.019	265.57305
233.24	315.30916
233.46	97.79568
233.68	165.33465
233.901	98.05302
234.121	75.80836
234.341	34.11938
234.561	-6.78589
234.782	51.32895
235.002	182.12097
235.222	-1.81007
235.442	154.25438
235.662	77.18714
235.883	161.82158
236.103	118.47545
236.323	90.01764
236.543	65.53409
236.763	104.24667
236.983	108.15163
237.203	97.44937
237.423	143.45177
237.643	214.51986
237.864	194.4024
238.084	47.53429
238.304	60.79097
238.524	108.09851
238.744	94.68243
238.964	163.68374
239.184	143.54992
239.404	161.49508
239.624	82.10738
239.843	142.04014
240.063	83.4669
240.283	49.83829
240.503	57.26516
240.723	55.76774
240.943	34.60701
241.163	41.95516
241.383	31.27679
241.603	16.94214
241.822	19.35871
242.042	13.93206
242.262	17.86519
242.482	19.26799
242.702	20.17743
242.921	6.71359
243.141	13.47979
243.361	12.99886
243.581	18.08053
243.8	15.16251
244.02	10.15671
244.24	18.54689
244.459	17.20067
244.679	34.8675
244.899	22.40349
245.118	27.06531
245.338	24.76787
245.558	27.43059
245.777	16.75118
245.997	20.47379
246.216	21.23938
246.436	12.92171
246.655	9.07309
246.875	6.95364
247.094	12.41781
247.314	4.48776
247.533	7.48752
247.753	8.3533
247.972	6.64376
248.192	2.43595
248.411	4.36993
248.631	6.68708
248.85	8.07301
249.07	7.70092
249.289	11.51939
249.508	8.55113
249.728	12.21161
249.947	13.44069
250.166	17.46895
250.386	8.58116
250.605	13.85056
250.824	22.12109
251.044	15.21473
251.263	47.5021
251.482	27.09928
251.701	24.0053
251.921	0.82224
252.14	8.03319
252.359	8.84003
252.578	20.00534
252.798	7.58204
253.017	16.64192
253.236	8.93164
253.455	11.39099
253.674	21.34524
253.893	10.22415
254.112	15.07474
254.331	23.66097
254.551	18.5912
254.77	10.53897
254.989	27.55959
255.208	22.36832
255.427	31.84841
255.646	27.77052
255.865	42.45358
256.084	17.95923
256.303	22.49963
256.522	27.38674
256.741	6.12894
256.96	6.50393
257.179	18.04405
257.397	22.1618
257.616	11.93704
257.835	12.49663
258.054	29.24453
258.273	20.10701
258.492	19.74063
258.711	13.47231
258.93	6.12252
259.148	9.4017
259.367	8.74232
259.586	10.92695
259.805	5.1919
260.023	9.06667
260.242	6.62772
260.461	5.19977
260.68	2.63791
260.898	7.63816
261.117	2.80864
261.336	2.10701
261.554	6.25517
261.773	6.07668
261.992	1.88888
262.21	6.27558
262.429	7.12182
262.648	12.63826
262.866	15.06248
263.085	11.30501
263.303	9.18629
263.522	16.68622
263.74	15.70434
263.959	27.97368
264.178	14.70159
264.396	12.52742
264.615	9.51442
264.833	21.19545
265.051	17.83743
265.27	20.81393
265.488	20.65224
265.707	13.42552
265.925	20.56337
266.144	10.35161
266.362	11.21453
266.58	12.11118
266.799	9.74796
267.017	11.20425
267.235	10.63366
267.454	6.96769
267.672	3.73803
267.89	8.38039
268.109	8.76796
268.327	8.7683
268.545	2.05224
268.763	7.57597
268.982	3.97874
269.2	9.3054
269.418	5.95434
269.636	4.56487
269.854	8.94642
270.073	6.16857
270.291	3.60687
270.509	3.97016
270.727	8.52243
270.945	14.10983
271.163	13.42832
271.381	3.6225
271.599	5.81779
271.817	9.50903
272.036	3.7403
272.254	6.68947
272.472	4.85737
272.69	4.5364
272.908	4.8871
273.126	7.4242
273.344	9.64089
273.562	3.68482
273.779	5.08662
273.997	8.21654
274.215	7.44934
274.433	5.29938
274.651	8.16013
274.869	8.451
275.087	5.12904
275.305	7.81384
275.523	5.08249
275.74	5.8324
275.958	10.63701
276.176	14.79637
276.394	4.57534
276.612	6.50023
276.829	6.28903
277.047	5.32002
277.265	5.82044
277.483	6.64891
277.7	7.52015
277.918	6.47275
278.136	11.65322
278.353	5.69426
278.571	3.48299
278.789	9.22879
279.006	2.2591
279.224	5.95654
279.442	9.29136
279.659	6.96983
279.877	4.28275
280.094	10.28775
280.312	2.27253
280.529	6.73738
280.747	2.3869
280.964	5.46851
281.182	10.45802
281.399	5.71792
281.617	7.18602
281.834	4.80221
282.052	3.90033
282.269	6.22296
282.487	4.9174
282.704	4.58746
282.921	4.01758
283.139	6.27504
283.356	7.68126
283.574	7.5912
283.791	3.63766
284.008	9.69217
284.226	5.71262
284.443	6.60878
284.66	8.1189
284.877	6.79325
285.095	4.25384
285.312	3.35255
285.529	2.01433
285.746	1.7453
285.964	4.02189
286.181	2.74192
286.398	3.73737
286.615	5.21473
286.832	4.98979
287.05	1.19615
287.267	3.42887
287.484	3.62962
287.701	4.97725
287.918	4.88421
288.135	5.17
288.352	2.24852
288.569	2.71086
288.786	4.72798
289.003	3.66206
289.22	5.91149
289.437	3.41761
289.654	5.40404
289.871	5.65422
290.088	5.64001
290.305	4.58503
290.522	3.7609
290.739	4.01748
290.956	5.85779
291.173	6.6579
291.39	6.40637
291.607	4.13059
291.824	3.53332
292.04	2.68476
292.257	5.50807
292.474	5.97909
292.691	3.93976
292.908	1.88911
293.125	3.33486
293.341	2.32993
293.558	9.09973
293.775	4.10306
293.992	4.28636
294.208	1.65924
294.425	2.72793
294.642	3.74883
294.858	4.73747
295.075	1.38334
295.292	3.854
295.508	4.7074
295.725	6.52083
295.942	3.4283
296.158	2.5117
296.375	3.98318
296.591	3.1816
296.808	3.05115
297.024	3.72615
297.241	4.19252
297.458	4.47448
297.674	0.55108
297.891	3.54199
298.107	2.68104
298.323	2.05488
298.54	4.86659
298.756	2.53203
298.973	1.11252
299.189	5.11764
299.406	2.38712
299.622	5.2583
299.838	5.27192
300.055	4.91425
300.271	1.26751
300.487	1.95361
300.704	2.43067
300.92	1.43319
301.136	7.01516
301.353	5.52033
301.569	3.9598
301.785	3.93549
302.001	4.89003
302.218	4.2392
302.434	4.53153
302.65	1.44605
302.866	2.86454
303.083	7.20556
303.299	7.08784
303.515	3.93154
303.731	3.96864
303.947	1.43452
304.163	2.64785
304.379	4.03154
304.595	4.60397
304.812	2.85487
305.028	2.33645
305.244	3.03764
305.46	4.98526
305.676	5.07708
305.892	5.99307
306.108	4.46078
306.324	3.1578
306.54	6.80927
306.756	4.88194
306.972	4.62517
307.187	3.31746
307.403	6.6837
307.619	2.96917
307.835	5.75609
308.051	5.91041
308.267	2.00597
308.483	5.4349
308.699	4.49257
308.914	3.62688
309.13	3.81283
309.346	0.9912
309.562	1.93808
309.778	1.09582
309.993	4.63908
310.209	3.42084
310.425	1.58907
310.641	3.07497
310.856	1.89544
311.072	1.96123
311.288	3.47186
311.503	3.63164
311.719	0.75292
311.935	0.65913
312.15	4.05617
312.366	3.61493
312.581	4.22776
312.797	3.19662
313.013	4.45312
313.228	2.48592
313.444	3.61176
313.659	2.17518
313.875	4.16122
314.09	3.32856
314.306	5.94566
314.521	5.04735
314.737	4.70609
314.952	4.17773
315.168	3.76955
315.383	4.33645
315.599	3.29273
315.814	3.36128
316.029	5.35502
316.245	1.61668
316.46	1.31157
316.675	5.83766
316.891	6.92026
317.106	8.6995
317.321	4.86154
317.537	4.46121
317.752	5.0811
317.967	5.17486
318.183	2.5387
318.398	3.19052
318.613	5.61128
318.828	6.16364
319.043	5.36299
319.259	3.39168
319.474	4.11268
319.689	5.8167
319.904	0.85691
320.119	5.10053
320.334	4.54769
320.549	3.29966
320.765	5.70493
320.98	4.29776
321.195	5.50703
321.41	3.74732
321.625	5.22775
321.84	6.94771
322.055	7.00453
322.27	3.23202
322.485	2.10659
322.7	4.31712
322.915	5.99083
323.13	2.44799
323.345	6.47208
323.56	4.57778
323.775	5.04152
323.989	5.12424
324.204	4.30617
324.419	5.36347
324.634	1.5878
324.849	3.66291
325.064	7.14142
325.279	5.33429
325.493	4.74882
325.708	5.55996
325.923	2.54908
326.138	2.62413
326.352	6.6121
326.567	5.40045
326.782	3.32823
326.997	2.54103
327.211	4.97835
327.426	4.60946
327.641	3.37138
327.855	1.8357
328.07	4.89719
328.285	6.84274
328.499	3.48693
328.714	4.50912
328.928	5.11219
329.143	4.05336
329.358	5.84103
329.572	5.70735
329.787	6.13195
330.001	8.22976
330.216	2.03226
330.43	6.78669
330.645	6.81508
330.859	5.49902
331.074	2.96225
331.288	4.16049
331.503	6.60206
331.717	2.54678
331.931	3.78488
332.146	4.33833
332.36	7.36665
332.575	5.01932
332.789	4.48389
333.003	3.91836
333.218	5.04947
333.432	2.97353
333.646	5.35874
333.86	6.86356
334.075	7.37234
334.289	3.36544
334.503	2.45832
334.717	4.72873
334.932	4.77674
335.146	5.91532
335.36	3.27704
335.574	4.52792
335.788	4.56711
336.003	5.35199
336.217	4.99708
336.431	4.50701
336.645	3.10628
336.859	2.39008
337.073	4.02566
337.287	4.56176
337.501	2.56018
337.715	4.89712
337.929	5.40427
338.143	2.36067
338.357	4.01961
338.571	2.78449
338.785	5.04137
338.999	3.20814
339.213	3.1377
339.427	1.50319
339.641	5.69443
339.855	3.57728
340.069	2.90345
340.283	5.53189
340.497	6.69573
340.711	4.67714
340.924	3.45415
341.138	2.21398
341.352	1.85654
341.566	4.07495
341.78	1.11657
341.993	2.91735
342.207	2.37276
342.421	4.25066
342.635	3.67651
342.848	2.83493
343.062	0.53599
343.276	2.84617
343.49	7.29098
343.703	2.91145
343.917	5.15609
344.131	5.35048
344.344	2.8695
344.558	3.11319
344.771	2.43115
344.985	5.72103
345.199	6.42898
345.412	4.30542
345.626	4.13139
345.839	1.0947
346.053	2.25955
346.266	2.15131
346.48	4.64741
346.693	4.07287
346.907	4.36788
347.12	2.43142
347.334	3.95682
347.547	4.29153
347.76	3.29307
347.974	5.68395
348.187	4.26928
348.401	3.31772
348.614	2.90351
348.827	3.32074
349.041	4.66669
349.254	1.1699
349.467	3.37311
349.681	1.85423
349.894	2.8628
350.107	5.63457
350.32	6.60747
350.534	1.29015
350.747	3.21254
350.96	2.09549
351.173	2.54262
351.386	3.01259
351.6	2.89623
351.813	2.54342
352.026	3.58835
352.239	1.69345
352.452	3.31838
352.665	5.02785
352.878	3.24806
353.092	6.82044
353.305	4.53626
353.518	3.89397
353.731	2.32927
353.944	5.09439
354.157	2.79965
354.37	2.34151
354.583	2.03087
354.796	1.03781
355.009	5.41917
355.222	3.54956
355.435	3.55229
355.647	5.06249
355.86	1.9483
356.073	3.15655
356.286	2.68372
356.499	4.62527
356.712	4.05072
356.925	3.76625
357.138	4.76773
357.35	1.85157
357.563	2.73174
357.776	3.42547
357.989	2.75836
358.201	4.05694
358.414	3.43337
358.627	4.87905
358.84	2.88735
359.052	1.57157
359.265	1.70094
359.478	4.5299
359.69	-0.35343
359.903	4.28292
360.116	4.33555
360.328	0.94096
360.541	4.36497
360.753	1.78508
360.966	2.2573
361.179	2.43569
361.391	2.2543
361.604	1.51708
361.816	2.25874
362.029	1.99654
362.241	1.66713
362.454	2.02804
362.666	1.69214
362.879	2.88529
363.091	2.36514
363.304	1.763
363.516	2.6472
363.728	1.21026
363.941	3.65174
364.153	2.12157
364.366	0.0428
364.578	1.51523
364.79	3.59332
365.003	2.65013
365.215	2.36843
365.427	3.52619
365.639	4.56002
365.852	3.19295
366.064	5.47284
366.276	2.22965
366.488	3.60784
366.701	2.29657
366.913	2.5857
367.125	2.72647
367.337	2.16275
367.549	2.19463
367.762	3.00879
367.974	3.01312
368.186	2.00555
368.398	4.25942
368.61	3.79321
368.822	3.92717
369.034	2.98328
369.246	3.97441
369.458	6.04288
369.67	1.54419
369.882	5.57613
370.094	0.28756
370.306	5.14258
370.518	2.439
370.73	2.14409
370.942	1.85852
371.154	2.71977
371.366	2.28866
371.578	3.38391
371.79	1.84266
372.002	4.50661
372.214	5.30635
372.425	3.3033
372.637	4.71393
372.849	3.27997
373.061	0.05694
373.273	3.6746
373.484	3.73703
373.696	4.21462
373.908	0.05815
374.12	4.4424
374.331	3.52391
374.543	1.8634
374.755	1.64857
374.967	3.19943
375.178	4.10009
375.39	2.64339
375.602	2.98836
375.813	1.24719
376.025	1.29817
376.236	2.63493
376.448	3.06842
376.66	2.27617
376.871	2.25855
377.083	4.0228
377.294	4.2533
377.506	2.18577
377.717	4.57292
377.929	3.03952
378.14	1.7641
378.352	3.52597
378.563	3.39622
378.775	4.52958
378.986	1.85804
379.197	3.14123
379.409	2.20212
379.62	4.10363
379.832	3.16143
380.043	2.50752
380.254	3.26088
380.466	1.34211
380.677	6.62978
380.888	5.93773
381.1	6.3866
381.311	6.09056
381.522	2.91126
381.733	7.01246
381.945	2.57176
382.156	3.09124
382.367	2.28737
382.578	6.69186
382.789	6.59879
383.001	2.29684
383.212	4.86122
383.423	5.20425
383.634	4.48029
383.845	3.66756
384.056	2.47497
384.267	2.89122
384.478	2.89155
384.69	1.60425
384.901	3.77602
385.112	3.43584
385.323	5.11306
385.534	3.59178
385.745	3.29529
385.956	3.66587
386.167	1.75075
386.378	3.72529
386.588	1.54702
386.799	2.06376
387.01	0.9432
387.221	3.98744
387.432	2.88148
387.643	5.55887
387.854	2.73261
388.065	2.65656
388.275	2.83252
388.486	2.54236
388.697	2.95839
388.908	2.62884
389.119	4.57873
389.329	5.37379
389.54	3.20187
389.751	3.55458
389.962	4.74431
390.172	3.50495
390.383	2.47131
390.594	2.39558
390.804	2.26317
391.015	2.50491
391.226	3.23678
391.436	3.9784
391.647	3.54053
391.858	4.07968
392.068	1.07266
392.279	1.62002
392.489	3.27642
392.7	4.43749
392.91	1.79996
393.121	2.22898
393.331	3.70204
393.542	4.75125
393.752	3.95104
393.963	3.51611
394.173	3.38055
394.384	4.19588
394.594	3.11022
394.804	1.68197
395.015	3.41013
395.225	4.09472
395.436	1.80875
395.646	3.96338
395.856	2.46038
396.067	1.83282
396.277	4.6695
396.487	3.98692
396.697	3.77413
396.908	4.4901
397.118	4.51926
397.328	3.77394
397.538	4.7599
397.749	2.84499
397.959	4.73764
398.169	4.47919
398.379	2.04106
398.589	4.64017
398.8	3.63255
399.01	3.69465
399.22	3.288
399.43	6.40966
399.64	3.26059
399.85	4.49191
400.06	3.62819
400.27	3.0242
400.48	3.67554
400.69	5.56467
400.9	3.05042
401.11	2.70761
401.32	4.843
401.53	3.34224
401.74	5.95877
401.95	4.87109
402.16	2.79379
402.37	4.73507
402.58	3.17026
402.79	4.84189
403	5.08968
403.209	3.31532
403.419	4.95421
403.629	3.30738
403.839	4.9509
404.049	5.02228
404.258	3.00523
404.468	2.7975
404.678	4.79331
404.888	4.8663
405.097	2.959
405.307	3.79133
405.517	4.62229
405.727	4.39336
405.936	3.5364
406.146	4.25726
406.356	5.76573
406.565	4.06023
406.775	3.44398
406.984	3.47082
407.194	6.22493
407.404	4.37372
407.613	4.70654
407.823	5.08542
408.032	5.74471
408.242	5.65556
408.451	3.71869
408.661	4.28528
408.87	6.73133
409.08	3.61952
409.289	4.98591
409.499	4.78725
409.708	4.72715
409.918	2.15594
410.127	4.56906
410.336	6.44248
410.546	5.19741
410.755	4.21074
410.964	3.90549
411.174	3.77466
411.383	5.22151
411.592	5.12997
411.802	3.4105
412.011	5.88804
412.22	4.5758
412.429	6.59438
412.639	6.2892
412.848	6.46805
413.057	6.72739
413.266	6.30619
413.475	4.89444
413.685	6.00625
413.894	5.99642
414.103	6.4448
414.312	5.74095
414.521	4.91462
414.73	5.16303
414.939	7.3587
415.148	5.60744
415.357	5.35089
415.566	4.68109
415.776	4.68716
415.985	4.42747
416.194	6.11921
416.403	7.02331
416.611	3.52542
416.82	4.42803
417.029	5.21332
417.238	4.28827
417.447	4.09206
417.656	4.53854
417.865	4.23512
418.074	4.50335
418.283	4.97662
418.492	5.95267
418.7	5.70683
418.909	6.68419
419.118	5.10439
419.327	5.35449
419.536	5.16619
419.744	4.53403
419.953	6.01677
420.162	5.92935
420.371	4.4452
420.579	4.30273
420.788	5.58039
420.997	5.59208
421.205	5.49196
421.414	5.1153
421.623	5.15684
421.831	4.54548
422.04	5.52912
422.249	4.47885
422.457	5.35287
422.666	4.64848
422.874	6.00718
423.083	5.94858
423.291	5.92761
423.5	5.42439
423.708	5.6423
423.917	6.19457
424.125	5.47333
424.334	5.05371
424.542	7.22412
424.751	6.32383
424.959	6.04838
425.167	6.59515
425.376	6.45922
