Data from WindowProjectSample_Transmission__32__00032__05244533557277903.txt Node

Date: Mon May 05 17:36:46 EDT 2025
User: jessi
Spectrometer: SR400872
Trigger mode: 0
Integration Time (sec): 5.000010E-1
Scans to average: 20
Electric dark correction enabled: true
Nonlinearity correction enabled: true
Boxcar width: 0
XAxis mode: Wavelengths
Number of Pixels in Spectrum: 3648
>>>>>Begin Spectral Data<<<<<
184.909	20540.87083
185.132	-5162.93268
185.355	-2961.05563
185.578	-17867.18977
185.801	1529.82046
186.024	10289.06889
186.247	-2015.003
186.47	1232.27794
186.693	349.06226
186.916	360.56581
187.139	-3703.31868
187.362	3480.09825
187.585	4035.13224
187.808	3305.59335
188.031	27.3806
188.254	-55343.85498
188.476	-579.26483
188.699	6360.15688
188.922	757.6749
189.145	-15402.21646
189.368	-635.29155
189.591	-1317.20364
189.813	3148.08634
190.036	-51484.35385
190.259	-888.30041
190.482	-4310.29797
190.705	7202.97487
190.927	-2540.62384
191.15	13641.68104
191.373	3464.50757
191.595	-8866.6983
191.818	-4179.91739
192.041	-7867.27466
192.263	-3423.94848
192.486	-952.02917
192.709	-3930.7538
192.931	7803.27526
193.154	-29119.14582
193.377	-2924.80462
193.599	-2576.36094
193.822	-10091.41069
194.044	-1877.96884
194.267	1133.59541
194.489	127.90205
194.712	-43544.4627
194.934	-32080.15798
195.157	1102.80462
195.379	1378.08945
195.602	-7134.0662
195.824	-1359.45914
196.047	-8871.33172
196.269	2783.50357
196.492	-6623.16314
196.714	29374.02874
196.936	-8476.99469
197.159	-1178.31605
197.381	1190.53225
197.604	459.87375
197.826	12063.44643
198.048	-10880.50096
198.271	-2881.67438
198.493	7570.14092
198.715	2409.42362
198.938	-507.07543
199.16	7438.08989
199.382	-102739.86026
199.604	2800.9035
199.827	-1057.7059
200.049	-2986.10222
200.271	14621.86538
200.493	1252.92521
200.715	-38909.91168
200.938	-6070.68223
201.16	-4361.24988
201.382	21236.4462
201.604	2311.86973
201.826	2235.47325
202.048	-1972.19102
202.27	-2007.8177
202.492	-38185.47094
202.715	3135.28336
202.937	-4604.17477
203.159	-6166.26006
203.381	1578.61091
203.603	7077.12546
203.825	7227.01435
204.047	2244.51977
204.269	-2770.00368
204.491	2212.11297
204.713	6039.92488
204.935	-488885.60055
205.156	1155.11168
205.378	-3031.0464
205.6	1601.07374
205.822	155728.62594
206.044	-944.00507
206.266	1657.46645
206.488	4417.09096
206.71	-5189.42757
206.932	1145.73531
207.153	12423.95096
207.375	-7007.79236
207.597	-38613.94816
207.819	-2901.8778
208.041	2383.26298
208.262	527.65143
208.484	714.73641
208.706	-823.50554
208.927	-790.07463
209.149	552.37732
209.371	-2956.77324
209.593	-359.35387
209.814	-730.01922
210.036	559.43231
210.258	-657.37331
210.479	1833.74576
210.701	1751.05576
210.922	3359.05576
211.144	-3938.29642
211.366	2144.25567
211.587	8029.18282
211.809	-8134.30267
212.03	2403.96227
212.252	491.34919
212.473	2065.63945
212.695	-6946.03789
212.916	3234.80095
213.138	-784.7581
213.359	3747.49644
213.581	5401.00383
213.802	-840.97264
214.024	1119.42709
214.245	2088.71721
214.466	3496.92375
214.688	-3151.50529
214.909	-1241.04718
215.131	-1718.46544
215.352	-3111.62477
215.573	14560.00713
215.795	5208.91153
216.016	5406.51743
216.237	791.25276
216.459	3613.3933
216.68	1791.57408
216.901	5143.28541
217.122	-3536.14459
217.344	-11629.6678
217.565	3464.27522
217.786	9078.47882
218.007	15434.91874
218.228	-743.3577
218.45	5662.66207
218.671	815.19227
218.892	39528.26221
219.113	1501.3354
219.334	-332.56258
219.555	10252.58675
219.776	3251.80113
219.997	22988.08275
220.219	3027.05962
220.44	-11395.61327
220.661	480.96224
220.882	1562.03563
221.103	-1096.91361
221.324	2522.03443
221.545	2287.35378
221.766	-9393.164
221.987	989.80968
222.208	1622.37339
222.429	4242.67817
222.65	304.17759
222.87	18596.60589
223.091	762.50253
223.312	590.64416
223.533	1318.93031
223.754	1505.73773
223.975	1430.35037
224.196	2005.34923
224.417	1371.21632
224.637	631.43326
224.858	127.18525
225.079	1170.35666
225.3	660.70552
225.521	3794.93841
225.741	488.64443
225.962	522.7016
226.183	167.30331
226.404	679.89576
226.624	411.72413
226.845	662.99106
227.066	411.11645
227.286	264.60776
227.507	133.4761
227.728	120.85045
227.948	248.86376
228.169	78.21634
228.389	92.28324
228.61	53.63386
228.831	70.31539
229.051	9.02357
229.272	47.30419
229.492	64.99347
229.713	21.1105
229.933	44.12993
230.154	41.49761
230.374	60.64479
230.595	44.19422
230.815	28.53156
231.036	49.42103
231.256	-2.52386
231.477	76.28436
231.697	47.10929
231.917	50.90145
232.138	65.71477
232.358	123.79076
232.579	107.82593
232.799	26.62503
233.019	111.35345
233.24	119.60807
233.46	49.21267
233.68	75.77411
233.901	47.70511
234.121	36.0099
234.341	20.6517
234.561	1.46044
234.782	29.49873
235.002	76.9638
235.222	2.45659
235.442	74.55183
235.662	42.08991
235.883	66.5828
236.103	56.36135
236.323	42.34886
236.543	34.65373
236.763	49.5338
236.983	55.51343
237.203	44.2031
237.423	65.77444
237.643	97.69329
237.864	77.34366
238.084	25.37193
238.304	37.39816
238.524	46.94362
238.744	48.25107
238.964	84.8937
239.184	70.81365
239.404	72.62597
239.624	45.60156
239.843	66.87907
240.063	43.88462
240.283	27.24926
240.503	32.32195
240.723	33.63593
240.943	22.42124
241.163	27.0517
241.383	21.39435
241.603	15.32571
241.822	16.35687
242.042	13.8178
242.262	16.42884
242.482	16.48131
242.702	18.85047
242.921	10.54121
243.141	14.49729
243.361	13.78077
243.581	16.81049
243.8	15.09115
244.02	12.97448
244.24	16.21547
244.459	16.4652
244.679	25.21589
244.899	18.87499
245.118	19.7165
245.338	19.85392
245.558	19.46303
245.777	15.73967
245.997	17.98823
246.216	17.40277
246.436	13.7967
246.655	12.26065
246.875	11.58184
247.094	15.27511
247.314	11.19819
247.533	13.65706
247.753	13.26443
247.972	13.34831
248.192	10.16086
248.411	11.56269
248.631	12.79065
248.85	14.10205
249.07	13.625
249.289	14.81343
249.508	13.52045
249.728	16.16551
249.947	14.66494
250.166	17.59751
250.386	11.75904
250.605	13.49027
250.824	18.6798
251.044	14.51313
251.263	35.74348
251.482	22.89129
251.701	18.77732
251.921	7.32141
252.14	10.33728
252.359	11.89311
252.578	17.8059
252.798	12.09155
253.017	15.98388
253.236	11.43594
253.455	13.92937
253.674	17.61962
253.893	12.7775
254.112	15.73885
254.331	19.12617
254.551	15.84547
254.77	11.91627
254.989	20.232
255.208	16.8775
255.427	23.90532
255.646	19.29792
255.865	28.47583
256.084	16.44236
256.303	18.66295
256.522	21.23951
256.741	10.05064
256.96	9.70697
257.179	15.28366
257.397	17.83884
257.616	13.75642
257.835	13.63374
258.054	21.98733
258.273	18.83654
258.492	17.58693
258.711	14.22326
258.93	11.28843
259.148	13.1407
259.367	12.32396
259.586	14.38187
259.805	11.84944
260.023	14.50902
260.242	13.91975
260.461	13.43091
260.68	11.60945
260.898	14.91177
261.117	11.933
261.336	10.71922
261.554	13.52099
261.773	12.79797
261.992	10.55432
262.21	11.57224
262.429	11.69554
262.648	15.25878
262.866	16.2472
263.085	14.10076
263.303	12.80508
263.522	17.03674
263.74	16.29666
263.959	23.35971
264.178	15.61273
264.396	14.07633
264.615	12.29569
264.833	17.60101
265.051	15.78597
265.27	19.21194
265.488	18.13488
265.707	13.25947
265.925	17.8725
266.144	12.19787
266.362	13.15225
266.58	12.83805
266.799	13.02015
267.017	14.36889
267.235	13.52011
267.454	11.26399
267.672	10.16465
267.89	12.52528
268.109	12.95255
268.327	13.54578
268.545	9.34823
268.763	12.36517
268.982	9.74753
269.2	11.82095
269.418	11.50195
269.636	10.38326
269.854	12.90764
270.073	11.14752
270.291	10.22844
270.509	9.34797
270.727	12.55424
270.945	15.14039
271.163	15.31216
271.381	9.9424
271.599	12.45977
271.817	13.87092
272.036	10.93326
272.254	12.43744
272.472	11.72489
272.69	11.53518
272.908	11.86136
273.126	13.75947
273.344	14.71218
273.562	10.42941
273.779	12.30707
273.997	13.82533
274.215	13.01678
274.433	11.59273
274.651	13.51773
274.869	12.88706
275.087	11.23391
275.305	12.12155
275.523	11.36532
275.74	11.12479
275.958	14.33778
276.176	16.13676
276.394	11.07433
276.612	11.88836
276.829	12.12332
277.047	11.28783
277.265	11.14186
277.483	11.81609
277.7	12.64793
277.918	11.71951
278.136	14.44151
278.353	10.95219
278.571	10.0482
278.789	12.17077
279.006	9.00498
279.224	11.12575
279.442	13.16263
279.659	12.1608
279.877	11.45727
280.094	13.60769
280.312	9.70697
280.529	12.03939
280.747	9.8914
280.964	11.39499
281.182	14.82599
281.399	11.05419
281.617	12.73783
281.834	10.974
282.052	10.97699
282.269	12.43941
282.487	11.71443
282.704	11.4078
282.921	11.25925
283.139	12.44892
283.356	13.23937
283.574	13.54659
283.791	10.78506
284.008	14.66428
284.226	12.71783
284.443	12.35469
284.66	14.04287
284.877	13.13489
285.095	11.94759
285.312	10.90994
285.529	10.77061
285.746	10.78144
285.964	12.0893
286.181	11.4641
286.398	12.40457
286.615	12.71535
286.832	13.03904
287.05	10.66836
287.267	11.92073
287.484	11.6906
287.701	12.34311
287.918	12.13007
288.135	12.72701
288.352	10.59028
288.569	11.20507
288.786	11.76117
289.003	11.42972
289.22	12.69201
289.437	11.08601
289.654	12.36342
289.871	12.68687
290.088	12.75483
290.305	12.6886
290.522	12.18771
290.739	12.17985
290.956	13.10712
291.173	13.48257
291.39	13.24606
291.607	12.53566
291.824	11.80665
292.04	11.5772
292.257	12.75359
292.474	13.03786
292.691	11.5417
292.908	10.62606
293.125	11.11068
293.341	10.42792
293.558	13.8826
293.775	11.37118
293.992	11.2099
294.208	10.18482
294.425	10.93491
294.642	11.61789
294.858	12.13107
295.075	10.41361
295.292	11.53401
295.508	12.05061
295.725	13.72344
295.942	11.80034
296.158	11.46655
296.375	12.39599
296.591	11.67428
296.808	12.34539
297.024	12.77576
297.241	13.01578
297.458	13.24162
297.674	11.46304
297.891	12.67516
298.107	12.87084
298.323	12.14689
298.54	14.35636
298.756	12.33261
298.973	11.71824
299.189	13.93176
299.406	12.01252
299.622	13.04296
299.838	13.08263
300.055	12.63288
300.271	11.1009
300.487	11.12203
300.704	11.55366
300.92	10.79082
301.136	14.65199
301.353	12.38842
301.569	11.74375
301.785	12.19367
302.001	12.79994
302.218	12.24067
302.434	12.50405
302.65	10.67341
302.866	11.66747
303.083	14.05259
303.299	13.95204
303.515	12.10431
303.731	12.4878
303.947	10.64496
304.163	11.69426
304.379	12.26259
304.595	12.55966
304.812	11.49827
305.028	11.72249
305.244	11.76881
305.46	12.63062
305.676	12.81104
305.892	13.26248
306.108	12.55969
306.324	11.61813
306.54	13.60079
306.756	12.31514
306.972	12.00778
307.187	12.07055
307.403	12.73923
307.619	11.40501
307.835	12.54378
308.051	13.33932
308.267	10.9122
308.483	13.20825
308.699	12.3234
308.914	12.00811
309.13	11.95414
309.346	11.128
309.562	11.51341
309.778	11.26741
309.993	12.55892
310.209	12.80324
310.425	11.45334
310.641	12.60172
310.856	11.73008
311.072	11.87513
311.288	12.4343
311.503	13.03713
311.719	11.25363
311.935	11.36279
312.15	13.22317
312.366	12.9207
312.581	13.05194
312.797	12.83045
313.013	13.43517
313.228	11.84905
313.444	12.03057
313.659	11.73141
313.875	12.54904
314.09	11.881
314.306	13.0207
314.521	12.58318
314.737	12.43466
314.952	11.98075
315.168	12.02226
315.383	12.14653
315.599	11.40297
315.814	11.74991
316.029	12.28182
316.245	11.02366
316.46	10.02185
316.675	12.58862
316.891	13.41014
317.106	14.3194
317.321	11.60993
317.537	12.4052
317.752	12.52048
317.967	12.68439
318.183	10.81881
318.398	11.4666
318.613	12.28336
318.828	12.87241
319.043	12.05105
319.259	11.54928
319.474	11.6426
319.689	12.68576
319.904	10.06055
320.119	12.43313
320.334	11.51205
320.549	11.36201
320.765	12.37839
320.98	11.91072
321.195	11.63848
321.41	11.46214
321.625	11.96857
321.84	12.8728
322.055	12.77752
322.27	10.97808
322.485	10.31217
322.7	12.0316
322.915	12.06188
323.13	11.19266
323.345	13.07386
323.56	12.70453
323.775	12.34904
323.989	12.00565
324.204	11.83308
324.419	12.94104
324.634	10.88792
324.849	11.91598
325.064	14.96073
325.279	13.02771
325.493	12.22189
325.708	12.46283
325.923	11.29603
326.138	11.65256
326.352	13.07574
326.567	12.65537
326.782	11.35421
326.997	11.52025
327.211	12.36913
327.426	12.04579
327.641	11.63
327.855	10.69475
328.07	12.28422
328.285	13.59752
328.499	11.18757
328.714	11.93981
328.928	11.84542
329.143	11.56451
329.358	12.61409
329.572	12.41616
329.787	12.81068
330.001	13.82267
330.216	10.22922
330.43	13.67411
330.645	12.61564
330.859	12.25548
331.074	10.56407
331.288	11.55089
331.503	12.9372
331.717	10.53616
331.931	11.68229
332.146	11.88289
332.36	13.37898
332.575	11.92043
332.789	11.75423
333.003	12.06018
333.218	11.98036
333.432	11.11409
333.646	12.55592
333.86	13.56208
334.075	13.15347
334.289	11.33502
334.503	10.34396
334.717	12.07766
334.932	11.58495
335.146	12.15171
335.36	10.59817
335.574	12.02958
335.788	11.46568
336.003	12.26077
336.217	12.26326
336.431	11.88729
336.645	11.03777
336.859	10.51486
337.073	11.4443
337.287	11.95714
337.501	10.52263
337.715	12.40609
337.929	12.6514
338.143	11.17691
338.357	11.90057
338.571	11.71286
338.785	12.79124
338.999	11.50136
339.213	11.49515
339.427	10.90705
339.641	12.93105
339.855	11.45676
340.069	10.87566
340.283	12.33871
340.497	13.1182
340.711	12.29164
340.924	11.742
341.138	10.85036
341.352	10.66495
341.566	11.92128
341.78	10.53149
341.993	11.43331
342.207	10.91506
342.421	12.25532
342.635	11.60887
342.848	11.63959
343.062	9.72542
343.276	11.30039
343.49	13.13772
343.703	11.16879
343.917	12.58155
344.131	12.78063
344.344	10.93195
344.558	11.60121
344.771	10.62173
344.985	13.17717
345.199	13.30144
345.412	12.19687
345.626	12.34564
345.839	10.64239
346.053	10.85082
346.266	11.12393
346.48	12.34977
346.693	12.3042
346.907	11.87657
347.12	11.12225
347.334	11.70199
347.547	11.9995
347.76	11.45023
347.974	12.4658
348.187	11.65298
348.401	11.24757
348.614	10.62317
348.827	11.27407
349.041	11.72821
349.254	10.2451
349.467	10.98617
349.681	10.82651
349.894	10.7335
350.107	12.45888
350.32	13.22691
350.534	10.63296
350.747	11.21038
350.96	10.88681
351.173	10.98972
351.386	11.27931
351.6	11.07008
351.813	11.13423
352.026	11.15365
352.239	10.76113
352.452	11.09424
352.665	12.47316
352.878	11.13619
353.092	13.21448
353.305	12.0601
353.518	11.69324
353.731	10.64652
353.944	12.44169
354.157	11.39247
354.37	11.21321
354.583	10.47346
354.796	10.56938
355.009	12.18508
355.222	11.90336
355.435	11.54668
355.647	12.45125
355.86	11.05747
356.073	11.70434
356.286	11.24447
356.499	12.37976
356.712	12.18169
356.925	12.17177
357.138	12.30813
357.35	11.21021
357.563	11.35384
357.776	11.84626
357.989	11.78306
358.201	12.12358
358.414	12.00501
358.627	12.91527
358.84	11.59439
359.052	10.76546
359.265	11.24454
359.478	12.53059
359.69	9.94322
359.903	12.3881
360.116	12.52512
360.328	10.62887
360.541	12.22595
360.753	11.15897
360.966	11.64763
361.179	11.62081
361.391	11.54639
361.604	11.4219
361.816	11.69788
362.029	11.71286
362.241	11.37933
362.454	11.8354
362.666	11.3545
362.879	12.38219
363.091	11.68806
363.304	11.60673
363.516	11.64405
363.728	11.13083
363.941	12.00907
364.153	11.73066
364.366	10.28808
364.578	10.90516
364.79	11.78389
365.003	11.62549
365.215	11.13176
365.427	12.07226
365.639	12.21415
365.852	11.66072
366.064	12.97901
366.276	11.41005
366.488	11.52229
366.701	11.21786
366.913	11.25748
367.125	11.28722
367.337	10.80996
367.549	11.08807
367.762	11.34365
367.974	11.38505
368.186	11.13453
368.398	12.01941
368.61	11.70864
368.822	11.78625
369.034	11.02552
369.246	11.94394
369.458	13.53583
369.67	10.74205
369.882	12.47059
370.094	9.97726
370.306	12.23417
370.518	11.06483
370.73	10.75856
370.942	10.87203
371.154	11.27669
371.366	11.14687
371.578	11.65734
371.79	11.28445
372.002	12.18271
372.214	13.05201
372.425	11.2348
372.637	12.63038
372.849	11.6319
373.061	10.07404
373.273	11.4196
373.484	11.39311
373.696	11.81185
373.908	9.76531
374.12	11.95674
374.331	11.46073
374.543	10.48134
374.755	10.59263
374.967	10.9832
375.178	11.81811
375.39	10.8639
375.602	11.22175
375.813	9.98575
376.025	10.63328
376.236	11.1687
376.448	11.31801
376.66	11.12208
376.871	11.07503
377.083	11.96565
377.294	12.47885
377.506	10.82591
377.717	12.31251
377.929	11.39394
378.14	11.02663
378.352	11.57121
378.563	11.71972
378.775	12.30125
378.986	10.578
379.197	11.18907
379.409	10.5553
379.62	11.52151
379.832	11.47092
380.043	10.89681
380.254	11.34227
380.466	10.30931
380.677	13.07973
380.888	12.40695
381.1	13.01241
381.311	12.91508
381.522	11.42384
381.733	13.12321
381.945	11.24813
382.156	10.9148
382.367	10.78655
382.578	12.95305
382.789	13.03883
383.001	10.59279
383.212	12.32958
383.423	12.1931
383.634	11.98572
383.845	11.76386
384.056	10.84963
384.267	11.2009
384.478	11.24949
384.69	10.43771
384.901	11.53611
385.112	11.39035
385.323	12.47765
385.534	11.64812
385.745	11.4713
385.956	11.31342
386.167	10.59493
386.378	11.50544
386.588	10.66453
386.799	10.67414
387.01	10.37501
387.221	11.8493
387.432	11.26595
387.643	12.16027
387.854	11.04745
388.065	10.99172
388.275	11.07571
388.486	10.80724
388.697	11.1168
388.908	10.8532
389.119	11.99251
389.329	12.13912
389.54	11.31656
389.751	11.25754
389.962	11.98953
390.172	11.12283
390.383	11.00975
390.594	10.5868
390.804	10.70206
391.015	10.8319
391.226	11.22748
391.436	11.54046
391.647	11.57874
391.858	11.69744
392.068	10.35378
392.279	10.64096
392.489	11.52597
392.7	11.96048
392.91	10.8532
393.121	10.82327
393.331	11.57428
393.542	11.92042
393.752	11.82657
393.963	11.56648
394.173	11.51629
394.384	11.5799
394.594	11.38854
394.804	10.59215
395.015	11.48024
395.225	11.59586
395.436	10.83951
395.646	11.53457
395.856	11.01369
396.067	10.32197
396.277	11.64219
396.487	11.31747
396.697	11.50787
396.908	11.44753
397.118	11.38983
397.328	11.10985
397.538	11.57813
397.749	10.49832
397.959	11.54381
398.169	11.30287
398.379	10.32008
398.589	11.39723
398.8	11.3137
399.01	11.21863
399.22	10.96666
399.43	12.46147
399.64	11.14617
399.85	11.3785
400.06	11.26597
400.27	10.58644
400.48	11.1073
400.69	11.9513
400.9	10.86694
401.11	10.40832
401.32	11.58871
401.53	10.76502
401.74	12.08855
401.95	11.2355
402.16	10.82687
402.37	11.21594
402.58	10.70347
402.79	11.3145
403	11.66487
403.209	10.68964
403.419	11.82066
403.629	10.71502
403.839	11.66436
404.049	11.62439
404.258	10.97339
404.468	10.70617
404.678	11.5198
404.888	12.02427
405.097	10.96752
405.307	11.04118
405.517	11.72745
405.727	11.47553
405.936	11.09068
406.146	11.41611
406.356	11.97361
406.565	11.23048
406.775	11.01764
406.984	10.93517
407.194	12.30054
407.404	11.29482
407.613	11.54437
407.823	11.5596
408.032	11.79954
408.242	11.63608
408.451	10.77963
408.661	10.95174
408.87	12.21963
409.08	10.71316
409.289	11.26396
409.499	11.24479
409.708	11.192
409.918	10.03305
410.127	11.32711
410.336	12.09937
410.546	11.59
410.755	10.94751
410.964	11.15514
411.174	10.62877
411.383	11.47268
411.592	11.44713
411.802	10.69416
412.011	11.54718
412.22	11.03732
412.429	12.10073
412.639	12.10732
412.848	11.46234
413.057	11.98174
413.266	11.72033
413.475	11.22249
413.685	11.35312
413.894	11.79841
414.103	11.77343
414.312	11.67907
414.521	10.95978
414.73	11.34028
414.939	12.42143
415.148	11.56709
415.357	11.35817
415.566	11.15867
415.776	10.97466
415.985	11.21395
416.194	11.89154
416.403	12.55413
416.611	10.68879
416.82	11.13979
417.029	11.51648
417.238	11.11146
417.447	11.02799
