Data from WindowProjectSample_Transmission__54__00054__06967572487392509.txt Node

Date: Mon May 05 18:15:24 EDT 2025
User: jessi
Spectrometer: SR400872
Trigger mode: 0
Integration Time (sec): 5.000010E-1
Scans to average: 20
Electric dark correction enabled: true
Nonlinearity correction enabled: true
Boxcar width: 0
XAxis mode: Wavelengths
Number of Pixels in Spectrum: 3648
>>>>>Begin Spectral Data<<<<<
184.909	20191.07826
185.132	-4909.59085
185.355	-2993.82319
185.578	-17654.17532
185.801	993.39575
186.024	10225.83309
186.247	-1768.42985
186.47	1023.62633
186.693	442.20471
186.916	230.46533
187.139	-3659.34723
187.362	3467.43347
187.585	4048.35606
187.808	3458.28925
188.031	-28.34505
188.254	-49414.08909
188.476	-674.50659
188.699	6057.22582
188.922	632.17094
189.145	-14865.15594
189.368	-727.18482
189.591	-1387.29728
189.813	3071.38064
190.036	-46996.28786
190.259	-888.30041
190.482	-3845.12871
190.705	6906.23864
190.927	-2447.12808
191.15	12907.79937
191.373	3197.03684
191.595	-9281.4188
191.818	-3960.76075
192.041	-5755.47417
192.263	-3408.41009
192.486	-789.5745
192.709	-3834.89939
192.931	7397.39073
193.154	-27672.67357
193.377	-2703.5074
193.599	-2655.46393
193.822	-8523.07941
194.044	-1761.19292
194.267	1137.05014
194.489	391.42352
194.712	-42745.59016
194.934	-30923.54627
195.157	1358.37279
195.379	1472.17743
195.602	-6913.76128
195.824	-1297.10807
196.047	-9070.6909
196.269	2649.09436
196.492	-6423.39429
196.714	26959.22539
196.936	-8362.28831
197.159	-1188.92971
197.381	1202.36897
197.604	570.98094
197.826	11365.73448
198.048	-10208.38865
198.271	-2794.38168
198.493	7609.94373
198.715	2209.05589
198.938	-542.66681
199.16	7178.38849
199.382	-103924.34011
199.604	2709.62814
199.827	-1091.25434
200.049	-2886.59699
200.271	14509.74037
200.493	1183.77666
200.715	-35828.98374
200.938	-5802.745
201.16	-4191.5876
201.382	19989.38502
201.604	2230.02865
201.826	2188.60536
202.048	-1844.22403
202.27	-1825.07651
202.492	-35676.67766
202.715	2914.50526
202.937	-4348.10911
203.159	-6129.88472
203.381	1361.43642
203.603	6768.62519
203.825	6232.36615
204.047	2146.47711
204.269	-2671.31758
204.491	2092.26074
204.713	5609.581
204.935	-450779.77161
205.156	1125.13725
205.378	-2837.81542
205.6	1677.74752
205.822	148291.94606
206.044	-1038.47778
206.266	1539.26383
206.488	4461.62339
206.71	-5003.91528
206.932	1043.07622
207.153	11579.03651
207.375	-6721.1883
207.597	-37241.10169
207.819	-2759.37575
208.041	2353.4863
208.262	433.37358
208.484	704.96003
208.706	-770.59841
208.927	-805.2645
209.149	562.10578
209.371	-2806.07586
209.593	-291.7628
209.814	-735.53615
210.036	525.59836
210.258	-700.48955
210.479	1751.34585
210.701	1614.12774
210.922	3189.09815
211.144	-3778.04061
211.366	1953.95388
211.587	7053.43851
211.809	-7924.34279
212.03	2389.89904
212.252	438.51533
212.473	1968.93607
212.695	-6279.59277
212.916	2909.04609
213.138	-731.29542
213.359	3537.79543
213.581	5066.99673
213.802	-745.53694
214.024	1070.38244
214.245	2052.96908
214.466	3227.97448
214.688	-3052.89668
214.909	-1100.66373
215.131	-1714.17348
215.352	-3415.76502
215.573	14417.10977
215.795	4963.60119
216.016	5186.21548
216.237	838.04871
216.459	3464.86462
216.68	1820.80177
216.901	4724.41201
217.122	-3017.33629
217.344	-11172.05283
217.565	3359.72319
217.786	8812.28705
218.007	16809.43881
218.228	-885.52783
218.45	5862.27938
218.671	782.69467
218.892	36394.17243
219.113	1472.29318
219.334	-300.60421
219.555	9995.49979
219.776	3084.55349
219.997	22634.05805
220.219	2623.89568
220.44	-11690.86863
220.661	408.86672
220.882	1478.58126
221.103	-1067.73491
221.324	2230.52353
221.545	2265.29754
221.766	-8802.32139
221.987	848.32567
222.208	1698.60827
222.429	4212.56491
222.65	146.43889
222.87	17620.87498
223.091	693.35411
223.312	569.14817
223.533	1371.38329
223.754	1479.06183
223.975	1346.64626
224.196	2051.52337
224.417	1310.33668
224.637	559.31925
224.858	46.70991
225.079	1091.78086
225.3	650.84838
225.521	3689.36224
225.741	477.2783
225.962	515.19827
226.183	159.8982
226.404	664.45975
226.624	416.86014
226.845	596.26455
227.066	404.28167
227.286	257.39404
227.507	128.13401
227.728	108.80962
227.948	235.7802
228.169	68.70668
228.389	82.4104
228.61	46.64939
228.831	64.01102
229.051	4.09124
229.272	38.52911
229.492	54.7675
229.713	13.41615
229.933	34.72536
230.154	32.05578
230.374	52.66108
230.595	36.60886
230.815	24.9698
231.036	39.803
231.256	-6.13109
231.477	67.56185
231.697	37.3623
231.917	40.03755
232.138	56.83458
232.358	104.53526
232.579	100.25079
232.799	17.82528
233.019	96.73413
233.24	112.26002
233.46	34.69855
233.68	62.05457
233.901	41.75916
234.121	26.00008
234.341	11.74426
234.561	-2.66243
234.782	20.07752
235.002	66.27662
235.222	-4.45458
235.442	62.90315
235.662	29.64176
235.883	61.91874
236.103	51.33218
236.323	39.11767
236.543	27.3822
236.763	40.74557
236.983	43.14871
237.203	40.98632
237.423	61.76646
237.643	83.86173
237.864	71.29632
238.084	17.28482
238.304	23.21313
238.524	46.12349
238.744	38.37589
238.964	71.94918
239.184	59.45083
239.404	64.34363
239.624	32.52064
239.843	60.66857
240.063	35.96586
240.283	22.77799
240.503	25.46618
240.723	24.42457
240.943	13.56085
241.163	19.70784
241.383	14.10831
241.603	7.01289
241.822	9.3752
242.042	6.39244
242.262	8.09528
242.482	9.1746
242.702	10.75904
242.921	2.41819
243.141	6.62794
243.361	6.10794
243.581	9.331
243.8	7.22913
244.02	4.59893
244.24	9.15355
244.459	9.27458
244.679	17.47845
244.899	10.64316
245.118	13.17982
245.338	11.66922
245.558	13.74861
245.777	8.60604
245.997	10.16779
246.216	10.41379
246.436	6.24302
246.655	4.79472
246.875	2.86157
247.094	6.01255
247.314	2.2056
247.533	3.39429
247.753	4.28754
247.972	3.40131
248.192	1.0167
248.411	1.59689
248.631	3.57124
248.85	4.51697
249.07	3.7227
249.289	5.88027
249.508	4.8366
249.728	7.64459
249.947	7.09443
250.166	8.9883
250.386	3.70255
250.605	6.83386
250.824	10.5803
251.044	7.57427
251.263	27.91617
251.482	14.04395
251.701	11.10268
251.921	-0.40263
252.14	3.23803
252.359	3.86599
252.578	9.6972
252.798	3.43037
253.017	8.73555
253.236	3.84015
253.455	5.7214
253.674	10.07989
253.893	4.83768
254.112	7.11399
254.331	10.82563
254.551	9.00879
254.77	3.6693
254.989	13.15545
255.208	9.66873
255.427	14.71839
255.646	11.26322
255.865	21.02357
256.084	8.88444
256.303	10.80981
256.522	13.78744
256.741	3.03921
256.96	2.41651
257.179	7.90971
257.397	10.33651
257.616	5.56782
257.835	5.74504
258.054	15.24406
258.273	10.05359
258.492	10.88331
258.711	6.54663
258.93	3.00171
259.148	4.48418
259.367	4.58343
259.586	5.4035
259.805	2.29984
260.023	5.07718
260.242	3.84386
260.461	2.81613
260.68	1.25009
260.898	4.47006
261.117	1.34465
261.336	0.9461
261.554	3.35419
261.773	3.17887
261.992	0.70766
262.21	3.23478
262.429	3.37897
262.648	7.48981
262.866	8.26712
263.085	5.66176
263.303	4.89721
263.522	8.74334
263.74	9.12708
263.959	14.96263
264.178	6.76594
264.396	5.95705
264.615	4.76808
264.833	9.99694
265.051	8.69888
265.27	10.75555
265.488	10.8599
265.707	6.43237
265.925	10.74156
266.144	4.41364
266.362	5.46557
266.58	5.37263
266.799	4.85946
267.017	5.73302
267.235	5.07487
267.454	3.20726
267.672	1.71112
267.89	3.97186
268.109	4.13332
268.327	3.76017
268.545	0.83213
268.763	3.94968
268.982	1.50316
269.2	4.02667
269.418	2.99491
269.636	1.96675
269.854	4.53723
270.073	3.29295
270.291	2.03892
270.509	1.76051
270.727	4.43561
270.945	6.96215
271.163	6.80449
271.381	1.32651
271.599	3.06447
271.817	5.42717
272.036	1.96559
272.254	3.30097
272.472	2.30583
272.69	2.45973
272.908	2.26139
273.126	4.54272
273.344	5.20268
273.562	1.82932
273.779	2.58121
273.997	3.66966
274.215	4.14403
274.433	2.76961
274.651	4.16527
274.869	4.58685
275.087	2.9815
275.305	3.87976
275.523	2.52079
275.74	2.84077
275.958	5.31926
276.176	8.03949
276.394	2.50916
276.612	3.17011
276.829	3.15776
277.047	2.59527
277.265	2.85178
277.483	3.44188
277.7	4.2068
277.918	3.41192
278.136	6.25728
278.353	2.89081
278.571	1.56503
278.789	4.35254
279.006	0.8556
279.224	2.7723
279.442	5.08084
279.659	3.21013
279.877	2.19479
280.094	5.72297
280.312	0.9845
280.529	3.49584
280.747	1.00718
280.964	2.72665
281.182	6.018
281.399	2.72473
281.617	3.7871
281.834	2.45655
282.052	1.89713
282.269	3.05956
282.487	2.47598
282.704	2.00873
282.921	2.18322
283.139	3.29108
283.356	3.9413
283.574	3.70457
283.791	1.77525
284.008	5.5511
284.226	2.74243
284.443	3.15858
284.66	4.10172
284.877	3.40283
285.095	1.83211
285.312	1.54842
285.529	0.85294
285.746	0.8517
285.964	2.07999
286.181	1.44708
286.398	1.87893
286.615	2.52967
286.832	2.55595
287.05	0.4168
287.267	1.69149
287.484	1.78507
287.701	2.56964
287.918	2.45617
288.135	2.6528
288.352	1.34407
288.569	1.47653
288.786	2.34522
289.003	2.03068
289.22	2.92629
289.437	1.59418
289.654	2.73184
289.871	2.98589
290.088	2.78979
290.305	2.16666
290.522	1.68483
290.739	1.93565
290.956	3.02351
291.173	3.45079
291.39	3.47597
291.607	2.33349
291.824	1.6235
292.04	1.28903
292.257	2.88718
292.474	3.0788
292.691	1.84499
292.908	0.92828
293.125	1.54519
293.341	1.13566
293.558	4.81786
293.775	1.98407
293.992	2.02742
294.208	0.95369
294.425	1.27721
294.642	1.8262
294.858	2.38248
295.075	0.59389
295.292	1.85442
295.508	2.24987
295.725	4.06373
295.942	1.54404
296.158	1.13101
296.375	1.96752
296.591	1.55406
296.808	1.7048
297.024	1.76924
297.241	2.12817
297.458	2.29857
297.674	0.22602
297.891	1.78879
298.107	1.3818
298.323	1.07839
298.54	2.98045
298.756	1.20986
298.973	0.5403
299.189	3.04579
299.406	1.0932
299.622	2.81228
299.838	2.66625
300.055	2.54313
300.271	0.53013
300.487	1.03901
300.704	1.14652
300.92	0.60924
301.136	4.05401
301.353	2.52859
301.569	1.90151
301.785	2.19574
302.001	2.57553
302.218	2.26159
302.434	2.13768
302.65	0.61744
302.866	1.63218
303.083	3.88913
303.299	3.71958
303.515	1.92075
303.731	2.04772
303.947	0.47078
304.163	1.2475
304.379	2.09528
304.595	2.28438
304.812	1.2315
305.028	1.20318
305.244	1.69806
305.46	2.6017
305.676	2.59169
305.892	3.08164
306.108	2.19684
306.324	1.37845
306.54	3.66403
306.756	2.47359
306.972	2.39065
307.187	1.74001
307.403	3.3314
307.619	1.49185
307.835	3.0178
308.051	3.38944
308.267	0.88161
308.483	2.77478
308.699	2.42225
308.914	1.93397
309.13	1.77361
309.346	0.53393
309.562	0.98145
309.778	0.61591
309.993	2.29063
310.209	1.87748
310.425	0.85895
310.641	1.67129
310.856	0.90079
311.072	0.93167
311.288	1.72007
311.503	1.79656
311.719	0.30821
311.935	0.16169
312.15	2.17491
312.366	1.67814
312.581	2.23335
312.797	1.7474
313.013	2.47651
313.228	1.20523
313.444	1.78881
313.659	1.24457
313.875	2.28561
314.09	1.71307
314.306	3.20011
314.521	2.68387
314.737	2.41476
314.952	1.80196
315.168	1.67415
315.383	2.28715
315.599	1.61625
315.814	1.46583
316.029	2.4269
316.245	0.74982
316.46	0.52094
316.675	3.06319
316.891	3.39871
317.106	4.44318
317.321	2.12701
317.537	2.50544
317.752	2.53056
317.967	2.57338
318.183	0.99375
318.398	1.56747
318.613	2.61697
318.828	3.18061
319.043	2.63291
319.259	1.5874
319.474	2.18484
319.689	2.99697
319.904	0.44266
320.119	2.50429
320.334	2.21485
320.549	1.63982
320.765	2.86652
320.98	2.12713
321.195	2.62387
321.41	1.80279
321.625	2.60553
321.84	3.53804
322.055	3.58788
322.27	1.35172
322.485	1.04268
322.7	2.18236
322.915	2.83991
323.13	1.04893
323.345	3.22757
323.56	2.76428
323.775	2.45273
323.989	2.23528
324.204	2.17737
324.419	2.97054
324.634	0.83347
324.849	1.7086
325.064	4.82836
325.279	2.82868
325.493	2.36481
325.708	2.69738
325.923	1.32703
326.138	1.40079
326.352	3.35129
326.567	2.79863
326.782	1.65672
326.997	1.27838
327.211	2.43821
327.426	2.1782
327.641	1.6109
327.855	0.63903
328.07	2.18
328.285	3.46309
328.499	1.54601
328.714	2.10473
328.928	2.5758
329.143	1.81651
329.358	2.71692
329.572	2.81052
329.787	2.9583
330.001	4.13306
330.216	0.90017
330.43	3.56919
330.645	3.39035
330.859	2.72275
331.074	1.34172
331.288	2.19122
331.503	3.06219
331.717	1.07633
331.931	2.1798
332.146	2.00977
332.36	3.5281
332.575	2.30397
332.789	2.28986
333.003	2.04936
333.218	2.3358
333.432	1.33577
333.646	2.65526
333.86	3.49871
334.075	3.40243
334.289	1.61658
334.503	1.20585
334.717	2.20546
334.932	2.38621
335.146	2.93106
335.36	1.73367
335.574	2.63142
335.788	2.25128
336.003	2.94203
336.217	2.36902
336.431	2.42729
336.645	1.47107
336.859	0.87252
337.073	1.77294
337.287	2.20695
337.501	1.08891
337.715	2.17967
337.929	2.75817
338.143	0.92861
338.357	1.89602
338.571	1.19582
338.785	2.30137
338.999	1.53371
339.213	1.44017
339.427	0.68056
339.641	3.05375
339.855	1.81807
340.069	1.49482
340.283	2.8483
340.497	3.61816
340.711	2.18319
340.924	1.70771
341.138	1.06979
341.352	0.87429
341.566	2.14387
341.78	0.52132
341.993	1.48856
342.207	1.12021
342.421	2.06337
342.635	1.85242
342.848	1.50159
343.062	0.20342
343.276	1.33416
343.49	3.62149
343.703	1.30789
343.917	2.76404
344.131	2.65572
344.344	1.34894
344.558	1.58672
344.771	0.99105
344.985	3.28646
345.199	3.22662
345.412	2.07994
345.626	2.16905
345.839	0.558
346.053	0.99109
346.266	1.09017
346.48	2.40362
346.693	2.18349
346.907	2.08119
347.12	1.12101
347.334	2.075
347.547	2.0895
347.76	1.47294
347.974	2.86228
348.187	2.08171
348.401	1.51965
348.614	1.32381
348.827	1.43265
349.041	2.22867
349.254	0.51774
349.467	1.51403
349.681	0.79733
349.894	1.31351
350.107	2.82429
350.32	3.31167
350.534	0.66407
350.747	1.52415
350.96	1.14079
351.173	1.33233
351.386	1.55478
351.6	1.4283
351.813	1.30983
352.026	1.79784
352.239	0.77326
352.452	1.55851
352.665	2.51599
352.878	1.79702
353.092	3.43851
353.305	2.35449
353.518	1.94917
353.731	1.15931
353.944	2.74671
354.157	1.42894
354.37	1.14913
354.583	1.06522
354.796	0.52706
355.009	2.50347
355.222	2.04329
355.435	1.86701
355.647	2.45528
355.86	1.01389
356.073	1.84051
356.286	1.32308
356.499	2.31032
356.712	2.01887
356.925	2.24054
357.138	2.346
357.35	1.05682
357.563	1.38202
357.776	1.73085
357.989	1.46751
358.201	2.11148
358.414	1.82734
358.627	2.70754
358.84	1.47984
359.052	0.80685
359.265	1.16181
359.478	2.56957
359.69	-0.08991
359.903	2.19173
360.116	2.41027
360.328	0.56569
360.541	2.33591
360.753	0.95192
360.966	1.25534
361.179	1.32853
361.391	1.23757
361.604	0.99347
361.816	1.32578
362.029	1.16752
362.241	0.96666
362.454	1.24739
362.666	0.96975
362.879	1.73404
363.091	1.37929
363.304	1.11884
363.516	1.53224
363.728	0.88613
363.941	2.06811
364.153	1.36487
364.366	0.20379
364.578	0.95603
364.79	1.80241
365.003	1.55716
365.215	1.30311
365.427	2.01494
365.639	2.38108
365.852	1.74082
366.064	3.27364
366.276	1.40968
366.488	1.97874
366.701	1.34003
366.913	1.59899
367.125	1.46706
367.337	1.10702
367.549	1.28588
367.762	1.80491
367.974	1.72455
368.186	1.21141
368.398	2.3598
368.61	2.10747
368.822	2.25125
369.034	1.77415
369.246	2.18602
369.458	3.90144
369.67	1.12528
369.882	3.03875
370.094	0.52561
370.306	2.99271
370.518	1.55355
370.73	1.1945
370.942	1.32046
371.154	1.62807
371.366	1.33632
371.578	2.01595
371.79	1.23946
372.002	2.57294
372.214	3.15277
372.425	1.82187
372.637	2.66559
372.849	2.06313
373.061	0.50303
373.273	2.10995
373.484	2.03032
373.696	2.44963
373.908	0.45559
374.12	2.63192
374.331	2.10384
374.543	1.38307
374.755	1.19928
374.967	2.0713
375.178	2.38345
375.39	1.63208
375.602	2.00331
375.813	0.98345
376.025	1.14587
376.236	2.06555
376.448	2.08253
376.66	1.55361
376.871	1.61424
377.083	2.78111
377.294	2.99329
377.506	1.64655
377.717	2.89447
377.929	2.1447
378.14	1.48671
378.352	2.29116
378.563	2.2284
378.775	2.86042
378.986	1.39454
379.197	2.01699
379.409	1.59126
379.62	2.48984
379.832	2.3694
380.043	1.90909
380.254	2.11773
380.466	1.36302
380.677	4.07467
380.888	3.43314
381.1	3.77905
381.311	3.82069
381.522	2.21195
381.733	4.07832
381.945	2.00453
382.156	2.1617
382.367	1.80381
382.578	4.13011
382.789	4.01812
383.001	1.88518
383.212	3.27586
383.423	3.27239
383.634	3.02729
383.845	2.71678
384.056	2.02466
384.267	2.35038
384.478	2.30896
384.69	1.63491
384.901	2.56544
385.112	2.6078
385.323	3.40945
385.534	2.74452
385.745	2.5456
385.956	2.61301
386.167	1.78677
386.378	2.75133
386.588	1.77027
386.799	2.04835
387.01	1.43927
387.221	3.04617
387.432	2.44266
387.643	3.6286
387.854	2.33023
388.065	2.34325
388.275	2.40247
388.486	2.29027
388.697	2.46458
388.908	2.30711
389.119	3.34248
389.329	3.60359
389.54	2.67447
389.751	2.87963
389.962	3.47207
390.172	2.83881
390.383	2.29579
390.594	2.33309
390.804	2.31038
391.015	2.37736
391.226	2.78701
391.436	3.07277
391.647	2.97474
391.858	3.17602
392.068	1.79674
392.279	2.03896
392.489	2.92169
392.7	3.49509
392.91	2.28948
393.121	2.31267
393.331	3.14982
393.542	3.57061
393.752	3.2806
393.963	3.25667
394.173	3.05478
394.384	3.22452
394.594	3.05398
394.804	2.31933
395.015	3.05174
395.225	3.32345
395.436	2.36247
395.646	3.24887
395.856	2.5754
396.067	2.15903
396.277	3.66062
396.487	3.42348
396.697	3.22485
396.908	3.4644
397.118	3.54747
397.328	3.29363
397.538	3.71429
397.749	2.64612
397.959	3.69742
398.169	3.47268
398.379	2.28817
398.589	3.52454
398.8	3.25525
399.01	3.32342
399.22	3.03024
399.43	4.64492
399.64	3.22825
399.85	3.73633
400.06	3.34774
400.27	2.70406
400.48	3.2923
400.69	4.30849
400.9	2.98251
401.11	2.73349
401.32	3.7614
401.53	3.12877
401.74	4.38298
401.95	3.74179
402.16	2.90095
402.37	3.62591
402.58	3.15116
402.79	3.80575
403	4.1747
403.209	3.11828
403.419	4.14644
403.629	3.05299
403.839	4.09279
404.049	4.08849
404.258	3.24018
404.468	3.11379
404.678	3.81706
404.888	4.22933
405.097	3.33833
405.307	3.59353
405.517	4.03757
405.727	3.80684
405.936	3.42573
406.146	3.78116
406.356	4.47585
406.565	3.61383
406.775	3.33862
406.984	3.39402
407.194	4.85512
407.404	3.73155
407.613	4.15446
407.823	4.22527
408.032	4.3204
408.242	4.28588
408.451	3.41342
408.661	3.6995
408.87	4.89376
409.08	3.41914
409.289	4.04325
409.499	3.98122
409.708	3.957
409.918	2.69734
410.127	4.03572
410.336	4.82123
410.546	4.39266
410.755	3.63274
410.964	3.78098
411.174	3.39704
411.383	4.22402
411.592	4.16944
411.802	3.41005
412.011	4.36811
412.22	3.74376
412.429	5.09559
412.639	4.86813
412.848	4.60293
413.057	4.76092
413.266	4.85861
413.475	4.00529
413.685	4.43737
413.894	4.73408
414.103	4.82367
414.312	4.68729
414.521	4
414.73	4.2035
414.939	5.44802
415.148	4.60033
415.357	4.40722
415.566	4.13342
415.776	4.08947
415.985	4.08409
416.194	4.91678
416.403	5.44524
416.611	3.65924
416.82	4.14085
417.029	4.5617
417.238	4.15424
417.447	4.01185
417.656	4.39383
417.865	4.13562
418.074	4.43108
418.283	4.62778
418.492	5.23958
418.7	4.99825
418.909	5.77179
419.118	4.96184
419.327	5.33316
419.536	5.15282
419.744	4.98795
419.953	6.11908
420.162	6.17055
420.371	5.49013
420.579	5.75668
420.788	6.57354
420.997	6.65687
421.205	6.83408
421.414	6.62097
421.623	6.659
421.831	6.35629
422.04	6.81846
422.249	6.07481
422.457	6.54568
422.666	5.95071
422.874	6.66114
423.083	6.7448
423.291	6.75096
423.5	6.52024
423.708	6.80045
423.917	7.16856
424.125	6.78462
424.334	6.57008
424.542	8.08546
424.751	7.62856
424.959	7.2544
425.167	7.43241
425.376	7.26572
425.584	6.43818
425.793	6.50388
426.001	5.65896
426.209	6.04733
426.418	5.23234
426.626	5.05038
426.834	4.91848
427.042	5.21494
