Data from WindowProjectSample_Transmission__59__00059__03592596370062001.txt Node

Date: Mon May 05 18:23:25 EDT 2025
User: jessi
Spectrometer: SR400872
Trigger mode: 0
Integration Time (sec): 5.000010E-1
Scans to average: 20
Electric dark correction enabled: true
Nonlinearity correction enabled: true
Boxcar width: 0
XAxis mode: Wavelengths
Number of Pixels in Spectrum: 3648
>>>>>Begin Spectral Data<<<<<
184.909	20870.37607
185.132	-4985.78768
185.355	-3094.89828
185.578	-17281.10833
185.801	1665.78921
186.024	10180.77959
186.247	-1722.09104
186.47	1195.03175
186.693	221.06335
186.916	232.41474
187.139	-3617.45967
187.362	3498.35125
187.585	4058.9608
187.808	3303.36126
188.031	29.09409
188.254	-51540.85049
188.476	-662.16393
188.699	6108.66366
188.922	626.2732
189.145	-15092.00395
189.368	-555.37321
189.591	-1350.20002
189.813	2913.92078
190.036	-49591.27541
190.259	-882.65234
190.482	-4397.0746
190.705	7078.88403
190.927	-2359.53308
191.15	13192.78451
191.373	3446.59641
191.595	-9146.12948
191.818	-4040.27702
192.041	-6667.49476
192.263	-3435.09768
192.486	-866.76898
192.709	-3856.9668
192.931	7802.74856
193.154	-28077.82182
193.377	-2735.37584
193.599	-2495.50997
193.822	-9538.16325
194.044	-1967.27181
194.267	1219.75824
194.489	296.55099
194.712	-43598.99045
194.934	-31520.64484
195.157	1285.57755
195.379	1560.17738
195.602	-6808.02544
195.824	-1293.32769
196.047	-8394.89833
196.269	2681.2168
196.492	-6381.60694
196.714	28992.65371
196.936	-8597.06453
197.159	-1182.48296
197.381	1088.1875
197.604	348.27426
197.826	11822.46785
198.048	-10714.19944
198.271	-2702.70671
198.493	7499.40848
198.715	2316.87977
198.938	-372.28484
199.16	6850.50357
199.382	-97604.90651
199.604	2653.345
199.827	-1061.25287
200.049	-2923.63954
200.271	14287.80321
200.493	1219.02395
200.715	-37197.55001
200.938	-5958.73576
201.16	-4269.83415
201.382	18882.42162
201.604	2325.62663
201.826	2367.13944
202.048	-1840.9451
202.27	-1812.26923
202.492	-35693.55733
202.715	2820.67665
202.937	-4506.89474
203.159	-6019.68019
203.381	1513.02958
203.603	6730.42991
203.825	6864.23767
204.047	2116.35339
204.269	-2648.01497
204.491	2142.02661
204.713	5821.53454
204.935	-495419.3073
205.156	1202.32969
205.378	-2958.39773
205.6	1672.14212
205.822	150190.52185
206.044	-1016.10569
206.266	1573.4536
206.488	4311.66137
206.71	-4969.17999
206.932	1095.89627
207.153	12451.04025
207.375	-6731.35051
207.597	-37268.97951
207.819	-2862.50964
208.041	2361.39056
208.262	452.73503
208.484	699.51977
208.706	-789.03445
208.927	-850.33395
209.149	558.32146
209.371	-2953.08098
209.593	-303.99684
209.814	-860.60066
210.036	523.73985
210.258	-590.80727
210.479	1727.94384
210.701	1771.04469
210.922	3157.68053
211.144	-4009.22362
211.366	2072.32364
211.587	8505.50069
211.809	-8277.09781
212.03	2313.58708
212.252	431.17446
212.473	2100.20881
212.695	-6087.17591
212.916	2838.59417
213.138	-708.22809
213.359	3706.6197
213.581	5003.25863
213.802	-823.52898
214.024	1094.78682
214.245	2172.22191
214.466	2224.76775
214.688	-3058.16863
214.909	-1245.79043
215.131	-1739.41413
215.352	-2982.08819
215.573	14437.61796
215.795	5090.24348
216.016	5290.50765
216.237	817.37453
216.459	3641.85973
216.68	1870.61119
216.901	5116.46002
217.122	-2752.58187
217.344	-11611.06624
217.565	3386.19841
217.786	8833.70948
218.007	15621.95443
218.228	-716.64442
218.45	5562.99295
218.671	728.30997
218.892	36202.56881
219.113	1511.63441
219.334	-287.28362
219.555	9444.26636
219.776	3028.57729
219.997	22183.10936
220.219	2730.58746
220.44	-11115.02627
220.661	466.0519
220.882	1467.84984
221.103	-968.37521
221.324	2261.83657
221.545	2230.8013
221.766	-8891.55699
221.987	975.47196
222.208	1629.93045
222.429	4208.16293
222.65	151.75583
222.87	17364.56751
223.091	721.69725
223.312	603.96232
223.533	1315.61024
223.754	1448.86679
223.975	1300.8616
224.196	1907.07786
224.417	1317.69576
224.637	548.49497
224.858	39.73171
225.079	1028.78674
225.3	667.06527
225.521	3760.08029
225.741	484.21957
225.962	483.5556
226.183	145.96139
226.404	651.7195
226.624	429.81167
226.845	621.20204
227.066	394.76943
227.286	243.57724
227.507	130.78964
227.728	114.46084
227.948	233.58771
228.169	76.1147
228.389	87.25471
228.61	46.8474
228.831	62.0368
229.051	2.34473
229.272	37.71705
229.492	55.92507
229.713	12.97163
229.933	35.12614
230.154	31.22837
230.374	52.89995
230.595	36.01821
230.815	21.10762
231.036	36.19239
231.256	-9.32967
231.477	68.46048
231.697	38.33357
231.917	42.43081
232.138	55.73788
232.358	112.10605
232.579	101.69542
232.799	15.57667
233.019	97.66549
233.24	113.47038
233.46	39.5384
233.68	62.03218
233.901	43.36005
234.121	24.11769
234.341	11.87935
234.561	-2.20461
234.782	19.89351
235.002	67.07767
235.222	-2.69793
235.442	61.28876
235.662	33.05155
235.883	62.47172
236.103	48.24483
236.323	37.69216
236.543	29.85283
236.763	39.45587
236.983	42.64526
237.203	41.1889
237.423	61.33108
237.643	86.43152
237.864	75.55047
238.084	19.07391
238.304	25.31631
238.524	43.23587
238.744	37.78337
238.964	72.95799
239.184	59.95047
239.404	62.77598
239.624	34.2932
239.843	60.08652
240.063	35.40701
240.283	21.27104
240.503	25.38987
240.723	24.00248
240.943	13.84289
241.163	19.54866
241.383	13.76285
241.603	6.91349
241.822	9.78823
242.042	6.02975
242.262	8.11704
242.482	9.41775
242.702	10.28266
242.921	2.50457
243.141	6.51538
243.361	6.35174
243.581	9.11766
243.8	6.84326
244.02	5.28638
244.24	9.25648
244.459	9.17832
244.679	17.00385
244.899	10.42033
245.118	12.26865
245.338	11.60132
245.558	13.62661
245.777	8.8473
245.997	10.4986
246.216	10.33954
246.436	6.10063
246.655	4.69773
246.875	3.1654
247.094	6.23569
247.314	2.00013
247.533	3.60141
247.753	4.29297
247.972	3.40844
248.192	1.1475
248.411	1.58549
248.631	3.42682
248.85	4.47103
249.07	3.65189
249.289	5.70042
249.508	4.56113
249.728	7.23327
249.947	6.73508
250.166	8.97873
250.386	3.95993
250.605	6.06238
250.824	10.7304
251.044	7.27466
251.263	27.89797
251.482	13.95377
251.701	11.4102
251.921	-0.29546
252.14	2.9374
252.359	3.83283
252.578	9.88226
252.798	3.21304
253.017	8.73875
253.236	4.53205
253.455	5.5733
253.674	10.10174
253.893	4.66698
254.112	7.70166
254.331	11.29769
254.551	8.95964
254.77	3.11834
254.989	13.03772
255.208	9.6155
255.427	15.14888
255.646	10.76404
255.865	22.14606
256.084	8.46412
256.303	10.25315
256.522	12.67054
256.741	2.66457
256.96	2.91902
257.179	8.51851
257.397	10.35313
257.616	6.07494
257.835	6.20784
258.054	14.68336
258.273	10.81599
258.492	10.90038
258.711	6.2471
258.93	3.06263
259.148	4.56025
259.367	4.54105
259.586	5.50957
259.805	2.33713
260.023	5.12478
260.242	3.75615
260.461	2.76077
260.68	1.21378
260.898	4.30697
261.117	1.31854
261.336	0.80436
261.554	3.25744
261.773	3.32191
261.992	0.84514
262.21	3.42025
262.429	3.39457
262.648	7.28996
262.866	7.86159
263.085	5.70538
263.303	4.79495
263.522	8.83805
263.74	8.76397
263.959	15.58509
264.178	6.90177
264.396	6.44634
264.615	4.7935
264.833	10.46152
265.051	8.57876
265.27	10.7725
265.488	10.74603
265.707	6.2007
265.925	10.61092
266.144	4.52017
266.362	5.52861
266.58	5.51348
266.799	4.66774
267.017	5.98474
267.235	5.16359
267.454	3.15161
267.672	1.84394
267.89	4.07102
268.109	4.55217
268.327	4.11362
268.545	0.9539
268.763	3.66895
268.982	1.3346
269.2	4.31082
269.418	3.03188
269.636	1.8563
269.854	4.52421
270.073	2.98979
270.291	2.00886
270.509	1.83442
270.727	4.1967
270.945	7.17187
271.163	7.0861
271.381	1.4425
271.599	3.13892
271.817	5.24547
272.036	1.7581
272.254	3.12367
272.472	2.33456
272.69	2.61614
272.908	2.43988
273.126	4.46176
273.344	5.38263
273.562	1.80097
273.779	2.59275
273.997	3.90706
274.215	3.94015
274.433	2.83221
274.651	4.41448
274.869	4.82229
275.087	2.80807
275.305	4.07008
275.523	2.49228
275.74	2.84928
275.958	5.48493
276.176	8.01477
276.394	2.48573
276.612	3.20541
276.829	3.24694
277.047	2.55265
277.265	2.87824
277.483	3.73447
277.7	4.27415
277.918	3.38345
278.136	6.05574
278.353	2.85084
278.571	1.81727
278.789	4.16614
279.006	1.10061
279.224	2.85378
279.442	5.0353
279.659	3.39634
279.877	2.27162
280.094	5.71849
280.312	1.13483
280.529	3.43676
280.747	1.04211
280.964	2.70031
281.182	6.01881
281.399	2.52381
281.617	3.73526
281.834	2.41347
282.052	1.99223
282.269	3.13528
282.487	2.50456
282.704	2.08994
282.921	2.1478
283.139	3.35659
283.356	4.01873
283.574	3.8676
283.791	1.79815
284.008	5.45143
284.226	2.865
284.443	3.14477
284.66	4.08474
284.877	3.30926
285.095	2.12874
285.312	1.69166
285.529	0.93461
285.746	0.94381
285.964	2.08349
286.181	1.35209
286.398	1.93863
286.615	2.62066
286.832	2.61804
287.05	0.65905
287.267	1.74854
287.484	1.79213
287.701	2.57068
287.918	2.52579
288.135	2.52241
288.352	1.11973
288.569	1.44601
288.786	2.28853
289.003	2.03633
289.22	3.04876
289.437	1.54708
289.654	2.92122
289.871	3.04423
290.088	2.8772
290.305	2.24363
290.522	1.77005
290.739	2.01213
290.956	3.11256
291.173	3.51614
291.39	3.29547
291.607	2.33104
291.824	1.75074
292.04	1.18039
292.257	2.73673
292.474	3.24012
292.691	1.95848
292.908	0.95217
293.125	1.6006
293.341	1.0655
293.558	4.94651
293.775	1.88431
293.992	2.02437
294.208	0.83686
294.425	1.33037
294.642	1.79813
294.858	2.33803
295.075	0.53711
295.292	2.01722
295.508	2.44703
295.725	4.03214
295.942	1.73819
296.158	1.3171
296.375	2.07109
296.591	1.63902
296.808	1.81863
297.024	2.09543
297.241	2.33794
297.458	2.53794
297.674	0.32236
297.891	1.96563
298.107	1.72879
298.323	1.24727
298.54	3.30749
298.756	1.48609
298.973	0.93505
299.189	3.31242
299.406	1.59554
299.622	3.0388
299.838	3.07493
300.055	2.98147
300.271	0.96549
300.487	1.40009
300.704	1.74316
300.92	1.05289
301.136	4.65466
301.353	3.03987
301.569	2.34125
301.785	2.53622
302.001	3.15008
302.218	2.67405
302.434	2.91296
302.65	1.2542
302.866	2.06764
303.083	4.57339
303.299	4.43035
303.515	2.66855
303.731	2.8211
303.947	1.41619
304.163	1.93302
304.379	2.803
304.595	3.03171
304.812	1.9621
305.028	2.04711
305.244	2.44601
305.46	3.22197
305.676	3.37213
305.892	3.79601
306.108	3.09362
306.324	2.36574
306.54	4.42792
306.756	3.17044
306.972	3.18107
307.187	2.53611
307.403	3.95676
307.619	2.19028
307.835	3.96621
308.051	4.18733
308.267	1.96048
308.483	3.91668
308.699	3.2424
308.914	2.76269
309.13	2.59549
309.346	1.62852
309.562	1.89863
309.778	1.78929
309.993	3.25776
310.209	2.95754
310.425	1.87043
310.641	2.75306
310.856	1.98871
311.072	1.94839
311.288	2.72752
311.503	3.0425
311.719	1.36803
311.935	1.39068
312.15	3.35657
312.366	2.9534
312.581	3.26212
312.797	2.79754
313.013	3.62243
313.228	2.35212
313.444	2.83595
313.659	2.36768
313.875	3.43765
314.09	2.81588
314.306	4.25121
314.521	3.69959
314.737	3.62843
314.952	3.05427
315.168	2.96486
315.383	3.3479
315.599	2.64186
315.814	2.66929
316.029	3.61869
316.245	2.07771
316.46	1.63399
316.675	4.14567
316.891	4.54457
317.106	5.71281
317.321	3.31799
317.537	3.67956
317.752	3.99793
317.967	3.95179
318.183	2.32223
318.398	2.68788
318.613	4.09015
318.828	4.46701
319.043	3.92601
319.259	3.01763
319.474	3.36937
319.689	4.27043
319.904	1.67246
320.119	4.0433
320.334	3.4634
320.549	3.13132
320.765	4.14359
320.98	3.66019
321.195	3.841
321.41	3.34277
321.625	3.89896
321.84	4.90672
322.055	4.91754
322.27	2.59637
322.485	2.44284
322.7	3.80301
322.915	4.177
323.13	2.76156
323.345	4.82531
323.56	4.08606
323.775	4.12332
323.989	3.83027
324.204	3.63524
324.419	4.53302
324.634	2.58664
324.849	3.36968
325.064	6.58832
325.279	4.43069
325.493	3.836
325.708	4.38583
325.923	2.99909
326.138	3.22443
326.352	5.01314
326.567	4.51129
326.782	3.26411
326.997	3.14879
327.211	4.23521
327.426	3.88534
327.641	3.45594
327.855	2.42209
328.07	4.09632
328.285	5.3734
328.499	3.27743
328.714	3.90364
328.928	4.22396
329.143	3.67139
329.358	4.69306
329.572	4.77547
329.787	5.00757
330.001	6.13751
330.216	2.77657
330.43	5.70651
330.645	5.27957
330.859	4.76201
331.074	3.22702
331.288	4.03916
331.503	5.38617
331.717	3.00972
331.931	4.2504
332.146	4.25237
332.36	5.76293
332.575	4.40762
332.789	4.48549
333.003	4.35345
333.218	4.68858
333.432	3.54946
333.646	4.99461
333.86	5.92398
334.075	5.63931
334.289	3.71215
334.503	3.15395
334.717	4.84222
334.932	4.43571
335.146	5.18669
335.36	3.75232
335.574	4.94686
335.788	4.45905
336.003	5.04771
336.217	4.98325
336.431	4.76208
336.645	3.98711
336.859	3.45547
337.073	4.30946
337.287	4.79634
337.501	3.495
337.715	4.95464
337.929	5.18376
338.143	3.60184
338.357	4.30505
338.571	3.95857
338.785	5.17483
338.999	4.23854
339.213	4.25923
339.427	3.53781
339.641	5.82733
339.855	4.35535
340.069	4.04215
340.283	5.47623
340.497	6.23279
340.711	5.23636
340.924	4.94009
341.138	4.02771
341.352	3.67083
341.566	4.97492
341.78	3.69417
341.993	4.40939
342.207	4.16852
342.421	5.00819
342.635	4.79831
342.848	4.60816
343.062	3.05915
343.276	4.27711
343.49	6.48582
343.703	4.42327
343.917	5.99082
344.131	6.10169
344.344	4.51547
344.558	4.81787
344.771	4.12603
344.985	6.44855
345.199	6.55286
345.412	5.55479
345.626	5.58617
345.839	3.96815
346.053	4.36257
346.266	4.49525
346.48	5.85072
346.693	5.66232
346.907	5.49231
347.12	4.47791
347.334	5.53885
347.547	5.50689
347.76	5.01988
347.974	6.23641
348.187	5.51914
348.401	4.95309
348.614	4.63243
348.827	5.00113
349.041	5.65017
349.254	4.06923
349.467	5.0298
349.681	4.73163
349.894	4.83027
350.107	6.54657
350.32	7.06088
350.534	4.46913
350.747	5.10378
350.96	4.86971
351.173	5.02029
351.386	5.3145
351.6	5.04921
351.813	5.07613
352.026	5.27004
352.239	4.70587
352.452	5.3102
352.665	6.38524
352.878	5.58118
353.092	7.2812
353.305	6.33578
353.518	5.93346
353.731	4.96899
353.944	6.65967
354.157	5.46775
354.37	5.51486
354.583	4.91073
354.796	4.72709
355.009	6.6377
355.222	6.3397
355.435	5.98509
355.647	6.8345
355.86	5.51891
356.073	6.15742
356.286	5.72659
356.499	6.87009
356.712	6.70742
356.925	6.76897
357.138	6.73696
357.35	5.7404
357.563	6.11136
357.776	6.50835
357.989	6.38519
358.201	6.80589
358.414	6.72214
358.627	7.45291
358.84	6.18834
359.052	5.46581
359.265	5.86352
359.478	7.22395
359.69	4.63126
359.903	7.1755
360.116	7.314
360.328	5.54737
360.541	7.19228
360.753	6.28319
360.966	6.55244
361.179	6.73104
361.391	6.62233
361.604	6.63575
361.816	6.69045
362.029	6.72587
362.241	6.42273
362.454	6.83592
362.666	6.28926
362.879	7.31366
363.091	6.62018
363.304	6.60543
363.516	6.62325
363.728	6.12823
363.941	7.12606
364.153	7.07725
364.366	5.49957
364.578	6.10851
364.79	6.94384
365.003	6.81636
365.215	6.38756
365.427	7.32031
365.639	7.53458
365.852	6.96367
366.064	8.35521
366.276	6.82882
366.488	7.09253
366.701	6.65714
366.913	6.7309
367.125	6.71526
367.337	6.21435
367.549	6.68602
367.762	6.87276
367.974	6.98331
368.186	6.67985
368.398	7.59259
368.61	7.28574
368.822	7.45662
369.034	6.76964
369.246	7.5771
369.458	9.26837
369.67	6.40784
369.882	8.17677
370.094	5.77712
370.306	8.05807
370.518	6.83505
370.73	6.71628
370.942	6.80783
371.154	7.21113
371.366	7.07638
371.578	7.51272
371.79	7.03404
372.002	7.99903
372.214	8.87843
372.425	7.14833
372.637	8.44452
372.849	7.59464
373.061	5.9216
373.273	7.55328
373.484	7.56201
373.696	7.95343
373.908	5.87237
374.12	8.04275
374.331	7.75466
374.543	6.83277
374.755	6.79864
374.967	7.51399
375.178	8.12714
375.39	7.1839
375.602	7.68916
375.813	6.51289
376.025	7.00237
376.236	7.61937
376.448	7.93917
376.66	7.53303
376.871	7.57848
377.083	8.55476
377.294	9.07737
377.506	7.56407
377.717	8.8291
377.929	8.13188
378.14	7.63831
378.352	8.05261
378.563	8.15256
378.775	8.71149
378.986	7.22544
379.197	7.80317
379.409	7.21374
379.62	8.30743
379.832	8.18407
380.043	7.67932
380.254	8.06163
380.466	7.12172
380.677	9.78002
380.888	9.18555
381.1	9.74781
381.311	9.87934
381.522	8.25964
381.733	9.99394
381.945	8.03816
382.156	7.97163
382.367	7.88333
382.578	9.95253
382.789	10.09451
383.001	7.75187
383.212	9.36066
383.423	9.46115
383.634	8.98852
383.845	8.8271
384.056	8.08988
384.267	8.46444
384.478	8.46777
384.69	7.63071
384.901	8.72847
385.112	8.68443
385.323	9.76007
385.534	8.90686
385.745	8.75473
385.956	8.70228
386.167	8.01355
386.378	8.93516
386.588	8.11421
386.799	8.04547
387.01	7.68915
387.221	9.08682
387.432	8.69561
387.643	9.78296
387.854	8.59941
388.065	8.4245
388.275	8.58773
388.486	8.28104
388.697	8.68011
388.908	8.32294
389.119	9.46908
389.329	9.59214
389.54	8.80233
389.751	8.9268
389.962	9.68007
390.172	8.90922
390.383	8.7163
390.594	8.4765
390.804	8.56692
391.015	8.6846
391.226	9.1347
391.436	9.42167
391.647	9.41482
391.858	9.46785
392.068	8.17441
392.279	8.52292
392.489	9.38825
392.7	9.71331
392.91	8.74534
393.121	8.60044
393.331	9.5963
393.542	9.95887
393.752	9.73531
393.963	9.55095
394.173	9.5
394.384	9.68052
394.594	9.44608
394.804	8.57182
395.015	9.39543
395.225	9.57339
395.436	8.77578
395.646	9.4487
395.856	9.08793
396.067	8.1658
396.277	9.84382
396.487	9.46266
396.697	9.53884
396.908	9.58651
397.118	9.61707
397.328	9.40948
397.538	9.86641
397.749	8.88105
397.959	9.90871
398.169	9.63816
398.379	8.50917
398.589	9.67011
398.8	9.6635
399.01	9.53572
399.22	9.29714
399.43	10.75643
399.64	9.49755
399.85	9.73293
400.06	9.67441
400.27	8.94482
400.48	9.38861
400.69	10.24516
400.9	9.3242
401.11	8.76606
401.32	9.8866
401.53	9.1007
401.74	10.56604
401.95	9.97176
402.16	9.18016
402.37	9.76569
402.58	9.3418
402.79	9.93207
403	10.37182
403.209	9.18941
403.419	10.51312
403.629	9.2553
403.839	10.50919
404.049	10.31124
404.258	9.70502
404.468	9.47491
404.678	10.22647
404.888	10.75225
405.097	9.74192
405.307	9.77597
405.517	10.36927
405.727	10.32845
405.936	9.76618
406.146	10.15449
406.356	10.7482
406.565	9.94191
406.775	9.72257
406.984	9.65011
407.194	11.08626
407.404	9.88927
407.613	10.37391
407.823	10.47147
408.032	10.52304
408.242	10.50635
408.451	9.66533
408.661	9.80921
408.87	11.14841
409.08	9.51402
409.289	10.30656
409.499	10.21347
409.708	10.23603
409.918	8.88761
410.127	10.38696
410.336	11.07363
410.546	10.69078
410.755	9.94727
410.964	10.06153
411.174	9.62211
411.383	10.50609
411.592	10.45244
411.802	9.66598
412.011	10.59823
412.22	10.04875
412.429	11.23305
412.639	11.28495
412.848	10.70893
413.057	11.13978
413.266	11.00283
413.475	10.42923
413.685	10.63128
413.894	11.05304
414.103	11.14619
414.312	10.9523
414.521	10.37867
414.73	10.50863
414.939	11.93736
415.148	10.94287
415.357	10.92774
415.566	10.6829
415.776	10.55813
415.985	10.74506
416.194	11.34743
416.403	12.22332
416.611	10.34268
416.82	10.75178
417.029	11.17103
417.238	10.91119
417.447	10.71846
417.656	11.08537
417.865	10.86541
418.074	11.14069
418.283	11.34543
418.492	11.93185
418.7	11.74939
418.909	12.7444
419.118	12.04664
419.327	12.36565
419.536	12.2593
419.744	12.48371
419.953	13.7636
420.162	14.05235
420.371	13.60154
420.579	14.3626
420.788	15.14915
420.997	15.17396
421.205	15.68889
421.414	15.44695
421.623	15.55286
421.831	15.26973
422.04	15.65608
422.249	14.74373
422.457	15.04552
422.666	14.20801
422.874	14.94712
423.083	15.12333
423.291	15.15338
423.5	15.04983
423.708	15.55124
423.917	16.0519
424.125	15.58451
424.334	15.57409
424.542	17.14242
424.751	16.67841
424.959	16.24891
425.167	16.12582
425.376	16.04474
425.584	14.5729
425.793	14.44039
