Data from WindowProjectSample_Transmission__37__00037__026998896167037456.txt Node

Date: Mon May 05 17:47:04 EDT 2025
User: jessi
Spectrometer: SR400872
Trigger mode: 0
Integration Time (sec): 5.000010E-1
Scans to average: 20
Electric dark correction enabled: true
Nonlinearity correction enabled: true
Boxcar width: 0
XAxis mode: Wavelengths
Number of Pixels in Spectrum: 3648
>>>>>Begin Spectral Data<<<<<
184.909	21826.51994
185.132	-5340.28131
185.355	-3134.67741
185.578	-18337.83997
185.801	1411.22447
186.024	10558.39912
186.247	-1797.00269
186.47	1286.87064
186.693	243.80644
186.916	344.07327
187.139	-3779.61153
187.362	3701.03512
187.585	4160.51161
187.808	3777.81638
188.031	-92.81157
188.254	-56542.10369
188.476	-691.8294
188.699	6398.52499
188.922	672.93448
189.145	-16156.52611
189.368	-658.78071
189.591	-1406.31182
189.813	3101.23943
190.036	-48841.11101
190.259	-938.17148
190.482	-4486.03953
190.705	7318.11906
190.927	-2607.05047
191.15	13723.82718
191.373	3460.06476
191.595	-9349.6614
191.818	-4275.14151
192.041	-6360.82536
192.263	-3278.93328
192.486	-745.53464
192.709	-3949.75271
192.931	8008.95362
193.154	-28366.39505
193.377	-2864.83844
193.599	-2691.47558
193.822	-9205.12097
194.044	-2065.28204
194.267	1176.48472
194.489	327.37652
194.712	-45292.3753
194.934	-33265.44056
195.157	1279.94137
195.379	1437.86561
195.602	-6631.48918
195.824	-1406.58341
196.047	-8928.48326
196.269	2834.19881
196.492	-6826.66784
196.714	29382.52437
196.936	-8698.52559
197.159	-1196.06412
197.381	1189.54125
197.604	419.35214
197.826	12918.92023
198.048	-10932.10859
198.271	-2867.37642
198.493	7480.68715
198.715	2482.73373
198.938	-483.86245
199.16	7445.99773
199.382	-103609.37599
199.604	2750.78649
199.827	-1141.5515
200.049	-2978.17844
200.271	14466.35946
200.493	1243.19021
200.715	-37335.09246
200.938	-6138.32649
201.16	-4243.48682
201.382	20822.04308
201.604	2368.15071
201.826	2434.44344
202.048	-2125.35699
202.27	-2044.62857
202.492	-37962.52592
202.715	3246.32243
202.937	-4733.74427
203.159	-6533.86906
203.381	1470.68126
203.603	7275.7877
203.825	6321.91179
204.047	2266.54967
204.269	-2997.88351
204.491	2142.33604
204.713	5990.59221
204.935	-496658.21089
205.156	1152.69969
205.378	-3010.99896
205.6	1587.89179
205.822	157888.46052
206.044	-837.47231
206.266	1589.2756
206.488	4587.70167
206.71	-5355.47293
206.932	1198.01531
207.153	12122.15163
207.375	-7081.83324
207.597	-39320.90582
207.819	-2767.0851
208.041	2473.74023
208.262	440.81923
208.484	752.06385
208.706	-744.8381
208.927	-906.3963
209.149	553.621
209.371	-2936.44968
209.593	-227.07767
209.814	-810.07548
210.036	601.00601
210.258	-624.53495
210.479	1773.22713
210.701	1706.76616
210.922	3439.78626
211.144	-3717.68483
211.366	2206.26177
211.587	7508.30196
211.809	-8180.19822
212.03	2308.51475
212.252	476.20896
212.473	2150.43578
212.695	-6958.55289
212.916	3035.86599
213.138	-755.53044
213.359	4038.44067
213.581	5572.00398
213.802	-825.84696
214.024	1158.45461
214.245	2159.9751
214.466	3835.92664
214.688	-3125.68008
214.909	-1197.53274
215.131	-1819.09995
215.352	-3149.59478
215.573	15232.42447
215.795	5456.004
216.016	5496.09064
216.237	802.54687
216.459	3580.06669
216.68	1762.25085
216.901	5339.82113
217.122	-3386.13881
217.344	-11573.38952
217.565	3579.87924
217.786	9098.33038
218.007	15713.30853
218.228	-774.68103
218.45	5645.07431
218.671	826.63521
218.892	38096.45983
219.113	1514.04646
219.334	-335.33888
219.555	8885.90576
219.776	3221.17324
219.997	23280.37417
220.219	2978.91937
220.44	-10777.2328
220.661	459.47739
220.882	1542.29184
221.103	-1216.41927
221.324	2197.30574
221.545	2297.85113
221.766	-9424.31153
221.987	943.54223
222.208	1715.98187
222.429	4450.80613
222.65	261.49286
222.87	18842.31937
223.091	689.93304
223.312	577.39391
223.533	1269.37252
223.754	1533.36665
223.975	1436.73401
224.196	2057.60704
224.417	1364.35652
224.637	561.18512
224.858	54.72776
225.079	1127.95984
225.3	676.84475
225.521	3799.17607
225.741	465.64845
225.962	520.4676
226.183	154.69381
226.404	678.44602
226.624	435.56753
226.845	674.17108
227.066	412.56
227.286	257.82743
227.507	121.61184
227.728	120.87484
227.948	245.22117
228.169	75.0902
228.389	87.10123
228.61	49.03966
228.831	63.84769
229.051	2.78458
229.272	38.79776
229.492	57.45899
229.713	15.34847
229.933	37.57511
230.154	32.59764
230.374	55.09592
230.595	38.55128
230.815	23.8222
231.036	39.31203
231.256	-5.9769
231.477	68.81891
231.697	39.58532
231.917	41.71494
232.138	56.77517
232.358	116.8873
232.579	105.14694
232.799	17.63826
233.019	103.09036
233.24	114.84842
233.46	41.42366
233.68	62.70493
233.901	47.20029
234.121	28.29044
234.341	14.23021
234.561	-4.80339
234.782	22.17632
235.002	70.50336
235.222	-6.1332
235.442	65.40113
235.662	32.11072
235.883	63.12706
236.103	52.44813
236.323	37.94154
236.543	28.80262
236.763	40.12716
236.983	45.50141
237.203	40.96062
237.423	64.7873
237.643	90.66924
237.864	76.18404
238.084	18.42415
238.304	27.98617
238.524	44.91364
238.744	40.16458
238.964	76.60248
239.184	62.4834
239.404	65.37731
239.624	34.76071
239.843	60.97143
240.063	37.25136
240.283	22.51768
240.503	25.75617
240.723	27.23335
240.943	14.32946
241.163	19.33203
241.383	15.04764
241.603	6.92858
241.822	10.08962
242.042	6.43399
242.262	8.45728
242.482	9.83313
242.702	10.95029
242.921	2.64551
243.141	6.86471
243.361	6.41492
243.581	9.41008
243.8	7.25004
244.02	5.09099
244.24	9.46494
244.459	9.25913
244.679	18.56002
244.899	11.49483
245.118	12.91937
245.338	11.61488
245.558	13.89315
245.777	8.97561
245.997	10.61154
246.216	11.10367
246.436	6.50179
246.655	4.7348
246.875	3.42759
247.094	6.33554
247.314	2.18652
247.533	3.76999
247.753	4.40755
247.972	3.51218
248.192	1.21512
248.411	1.87906
248.631	3.63606
248.85	4.63712
249.07	4.03478
249.289	5.76146
249.508	4.86801
249.728	7.47872
249.947	6.98723
250.166	9.00204
250.386	4.82997
250.605	6.56971
250.824	11.17249
251.044	7.69953
251.263	28.80598
251.482	15.19243
251.701	11.83828
251.921	-0.75618
252.14	3.18075
252.359	4.20551
252.578	10.19343
252.798	3.32341
253.017	9.13386
253.236	3.92182
253.455	5.59773
253.674	10.19092
253.893	5.05988
254.112	8.12792
254.331	11.19896
254.551	8.49569
254.77	3.36092
254.989	13.09307
255.208	10.74064
255.427	15.67018
255.646	11.60907
255.865	23.11163
256.084	8.40597
256.303	11.07304
256.522	14.45043
256.741	2.63548
256.96	3.06398
257.179	9.04262
257.397	11.20832
257.616	5.50545
257.835	6.14191
258.054	15.14246
258.273	10.82807
258.492	11.12805
258.711	6.2984
258.93	3.00075
259.148	4.75917
259.367	4.66036
259.586	5.64779
259.805	2.3766
260.023	5.26153
260.242	3.83645
260.461	2.92708
260.68	1.28632
260.898	4.7684
261.117	1.3753
261.336	1.00359
261.554	3.40466
261.773	3.56368
261.992	0.74506
262.21	3.19454
262.429	3.45809
262.648	7.86247
262.866	8.37448
263.085	5.41382
263.303	5.12104
263.522	8.55178
263.74	8.87559
263.959	15.72663
264.178	7.24967
264.396	6.79032
264.615	4.30897
264.833	10.83658
265.051	9.0324
265.27	11.35455
265.488	11.32521
265.707	6.49279
265.925	11.33217
266.144	4.72406
266.362	5.90337
266.58	5.36925
266.799	5.28106
267.017	6.07946
267.235	5.39349
267.454	3.52547
267.672	1.86449
267.89	4.11499
268.109	4.57694
268.327	4.44758
268.545	0.74071
268.763	4.49828
268.982	1.51977
269.2	4.40033
269.418	3.18861
269.636	1.90564
269.854	4.62639
270.073	3.15479
270.291	2.04834
270.509	1.57244
270.727	4.44638
270.945	7.45784
271.163	7.3501
271.381	1.46055
271.599	3.3128
271.817	5.5987
272.036	1.76913
272.254	3.30539
272.472	2.3796
272.69	2.40763
272.908	2.40955
273.126	4.59075
273.344	5.62003
273.562	2.01224
273.779	2.61222
273.997	3.79272
274.215	4.10939
274.433	2.91369
274.651	4.46117
274.869	4.90077
275.087	2.94756
275.305	4.1488
275.523	2.56867
275.74	3.01534
275.958	5.66245
276.176	8.46703
276.394	2.56584
276.612	3.43026
276.829	3.33143
277.047	2.74477
277.265	2.99856
277.483	3.6639
277.7	4.31917
277.918	3.48053
278.136	6.13943
278.353	3.0246
278.571	1.76912
278.789	4.59537
279.006	0.74498
279.224	2.96514
279.442	5.20217
279.659	3.7002
279.877	2.41618
280.094	6.02103
280.312	1.11379
280.529	3.69245
280.747	0.6941
280.964	2.59759
281.182	6.15065
281.399	2.80425
281.617	3.88767
281.834	2.67443
282.052	1.94918
282.269	3.29099
282.487	2.61639
282.704	2.14682
282.921	2.23292
283.139	3.46433
283.356	4.15303
283.574	3.92749
283.791	1.98278
284.008	5.83671
284.226	3.00062
284.443	3.25847
284.66	4.63384
284.877	3.5315
285.095	2.02122
285.312	1.70711
285.529	0.91035
285.746	0.74019
285.964	2.09728
286.181	1.43441
286.398	1.93404
286.615	2.77378
286.832	2.57813
287.05	0.53505
287.267	1.80356
287.484	1.77607
287.701	2.66416
287.918	2.54858
288.135	2.73407
288.352	1.33173
288.569	1.47207
288.786	2.4752
289.003	2.02786
289.22	3.13132
289.437	1.71791
289.654	2.95712
289.871	3.12942
290.088	2.96687
290.305	2.37366
290.522	1.85631
290.739	2.19196
290.956	3.12786
291.173	3.68064
291.39	3.50987
291.607	2.59694
291.824	1.72791
292.04	1.31709
292.257	2.96739
292.474	3.24743
292.691	2.03329
292.908	0.90429
293.125	1.62444
293.341	1.14965
293.558	5.0115
293.775	1.78848
293.992	1.90882
294.208	0.81871
294.425	1.19741
294.642	2.01526
294.858	2.32527
295.075	0.75192
295.292	2.03536
295.508	2.35093
295.725	4.12923
295.942	1.69757
296.158	1.35801
296.375	2.23092
296.591	1.61777
296.808	1.88436
297.024	2.06675
297.241	2.49936
297.458	2.61822
297.674	0.32892
297.891	2.02766
298.107	1.70126
298.323	1.26478
298.54	3.34234
298.756	1.58223
298.973	0.89915
299.189	3.51733
299.406	1.67437
299.622	3.24453
299.838	3.18535
300.055	3.11255
300.271	0.98306
300.487	1.48191
300.704	1.84878
300.92	1.25207
301.136	4.8909
301.353	3.12932
301.569	2.36496
301.785	2.74837
302.001	3.24884
302.218	2.74941
302.434	2.95486
302.65	1.41347
302.866	2.13494
303.083	4.69294
303.299	4.65567
303.515	2.76804
303.731	2.96861
303.947	1.36995
304.163	2.1098
304.379	2.87055
304.595	3.18247
304.812	2.00906
305.028	2.05479
305.244	2.50621
305.46	3.3285
305.676	3.65247
305.892	3.99283
306.108	3.3143
306.324	2.31037
306.54	4.63981
306.756	3.49622
306.972	3.2809
307.187	2.84956
307.403	4.0995
307.619	2.41678
307.835	3.9708
308.051	4.41845
308.267	1.94223
308.483	4.00576
308.699	3.41691
308.914	2.98992
309.13	2.82649
309.346	1.74277
309.562	2.12425
309.778	1.76907
309.993	3.44524
310.209	3.13148
310.425	2.00235
310.641	2.91266
310.856	2.13917
311.072	2.05465
311.288	2.89406
311.503	3.24161
311.719	1.50226
311.935	1.49014
312.15	3.56775
312.366	3.1695
312.581	3.46919
312.797	3.05587
313.013	3.92796
313.228	2.53284
313.444	2.94071
313.659	2.52991
313.875	3.51304
314.09	2.96511
314.306	4.49025
314.521	3.80097
314.737	3.85579
314.952	3.14508
315.168	3.16354
315.383	3.41713
315.599	2.86166
315.814	2.6582
316.029	3.82231
316.245	2.18798
316.46	1.55784
316.675	4.18743
316.891	4.92621
317.106	5.8932
317.321	3.41334
317.537	3.83633
317.752	4.11462
317.967	4.10177
318.183	2.37082
318.398	2.93775
318.613	4.13036
318.828	4.50924
319.043	3.9668
319.259	2.92669
319.474	3.41303
319.689	4.60722
319.904	1.71539
320.119	4.08863
320.334	3.5175
320.549	3.03715
320.765	4.15842
320.98	3.65452
321.195	3.63923
321.41	3.20821
321.625	4.08471
321.84	4.89649
322.055	4.9867
322.27	2.72525
322.485	2.26277
322.7	3.72194
322.915	4.10526
323.13	2.56579
323.345	4.86812
323.56	3.899
323.775	4.01552
323.989	3.69097
324.204	3.54535
324.419	4.33631
324.634	2.34639
324.849	3.30505
325.064	6.56408
325.279	4.36397
325.493	3.78912
325.708	4.15544
325.923	2.71238
326.138	3.0674
326.352	4.8686
326.567	4.27308
326.782	2.97023
326.997	2.84609
327.211	3.98024
327.426	3.61418
327.641	3.07588
327.855	2.05475
328.07	3.89491
328.285	4.97942
328.499	3.0235
328.714	3.56408
328.928	3.98577
329.143	3.25607
329.358	4.44491
329.572	4.21658
329.787	4.68158
330.001	5.87628
330.216	2.17285
330.43	5.33462
330.645	4.9042
330.859	4.23824
331.074	2.66376
331.288	3.63787
331.503	4.80072
331.717	2.50823
331.931	3.60189
332.146	3.72774
332.36	5.10874
332.575	3.79967
332.789	3.70307
333.003	3.61179
333.218	3.95981
333.432	2.90501
333.646	4.23619
333.86	5.18968
334.075	5.04224
334.289	3.04394
334.503	2.5007
334.717	3.92013
334.932	3.84221
335.146	4.51967
335.36	3.01835
335.574	4.1275
335.788	3.85843
336.003	4.40442
336.217	4.11141
336.431	4.02348
336.645	3.06326
336.859	2.37502
337.073	3.43738
337.287	3.66822
337.501	2.35542
337.715	3.84003
337.929	4.21345
338.143	2.46178
338.357	3.32974
338.571	2.87068
338.785	4.06419
338.999	3.08319
339.213	3.08633
339.427	2.29249
339.641	4.68625
339.855	3.1476
340.069	2.82514
340.283	4.23777
340.497	5.08764
340.711	3.87393
340.924	3.5188
341.138	2.56477
341.352	2.39463
341.566	3.6058
341.78	2.11044
341.993	3.044
342.207	2.61208
342.421	3.74669
342.635	3.29141
342.848	3.08384
343.062	1.54878
343.276	2.91434
343.49	5.16317
343.703	2.91585
343.917	4.51908
344.131	4.37065
344.344	2.77123
344.558	3.18248
344.771	2.33972
344.985	4.89851
345.199	4.82347
345.412	3.71411
345.626	3.8961
345.839	2.04221
346.053	2.44493
346.266	2.59655
346.48	4.03374
346.693	3.845
346.907	3.60608
347.12	2.62455
347.334	3.62629
347.547	3.71355
347.76	3.34469
347.974	4.45081
348.187	3.63547
348.401	3.02557
348.614	2.75346
348.827	3.10257
349.041	3.86782
349.254	2.04113
349.467	2.95972
349.681	2.3835
349.894	2.67583
350.107	4.46167
350.32	4.89997
350.534	2.1698
350.747	3.01466
350.96	2.65821
351.173	2.77292
351.386	3.14718
351.6	2.87682
351.813	2.91518
352.026	3.06531
352.239	2.33215
352.452	2.96274
352.665	4.11467
352.878	3.19378
353.092	4.92582
353.305	3.94225
353.518	3.42706
353.731	2.60684
353.944	4.15359
354.157	2.93282
354.37	2.68283
354.583	2.51564
354.796	2.12865
355.009	4.05824
355.222	3.58501
355.435	3.41874
355.647	4.06996
355.86	2.65964
356.073	3.35295
356.286	2.82523
356.499	3.9115
356.712	3.68513
356.925	3.69264
357.138	3.92675
357.35	2.55025
357.563	2.95575
357.776	3.42846
357.989	3.17826
358.201	3.56415
358.414	3.42342
358.627	4.35999
358.84	3.11717
359.052	2.29047
359.265	2.70105
359.478	4.06626
359.69	1.38197
359.903	3.79697
360.116	4.01833
360.328	2.06766
360.541	3.91637
360.753	2.63806
360.966	2.97436
361.179	3.08872
361.391	2.90475
361.604	2.73118
361.816	3.0378
362.029	2.88697
362.241	2.64516
362.454	2.96754
362.666	2.52485
362.879	3.55025
363.091	2.98375
363.304	2.72965
363.516	3.07841
363.728	2.50045
363.941	3.62357
364.153	3.1857
364.366	1.69152
364.578	2.39606
364.79	3.42083
365.003	3.24651
365.215	2.72582
365.427	3.55163
365.639	3.80452
365.852	3.31522
366.064	4.76869
366.276	2.97604
366.488	3.47051
366.701	2.86625
366.913	2.9557
367.125	3.03679
367.337	2.58929
367.549	2.71648
367.762	3.238
367.974	3.15628
368.186	2.80344
368.398	3.84841
368.61	3.53128
368.822	3.63256
369.034	3.05996
369.246	3.58651
369.458	5.39042
369.67	2.55268
369.882	4.44681
370.094	1.7841
370.306	4.364
370.518	2.90954
370.73	2.62623
370.942	2.70187
371.154	3.00055
371.366	2.88192
371.578	3.3064
371.79	2.81651
372.002	3.99565
372.214	4.67023
372.425	3.11674
372.637	4.23747
372.849	3.38955
373.061	1.73579
373.273	3.4197
373.484	3.35336
373.696	3.84385
373.908	1.76071
374.12	4.05011
374.331	3.48207
374.543	2.61397
374.755	2.45448
374.967	3.24627
375.178	3.77116
375.39	2.76041
375.602	3.22696
375.813	2.00156
376.025	2.44478
376.236	3.22882
376.448	3.37023
376.66	2.89124
376.871	2.90711
377.083	4.04287
377.294	4.33496
377.506	2.8366
377.717	4.23085
377.929	3.37969
378.14	2.78221
378.352	3.41308
378.563	3.47772
378.775	4.13073
378.986	2.48409
379.197	3.17393
379.409	2.6679
379.62	3.64235
379.832	3.53477
380.043	3.01333
380.254	3.29867
380.466	2.46636
380.677	5.19159
380.888	4.60758
381.1	4.93308
381.311	5.00454
381.522	3.34383
381.733	5.21198
381.945	3.17475
382.156	3.2549
382.367	2.87143
382.578	5.12496
382.789	5.17383
383.001	2.84513
383.212	4.31463
383.423	4.41115
383.634	3.96138
383.845	3.76474
384.056	2.9483
384.267	3.3803
384.478	3.2657
384.69	2.39593
384.901	3.55118
385.112	3.55195
385.323	4.36652
385.534	3.57856
385.745	3.4186
385.956	3.58024
386.167	2.63511
386.378	3.70141
386.588	2.69212
386.799	2.80327
387.01	2.22453
387.221	3.90933
387.432	3.17217
387.643	4.47852
387.854	3.12997
388.065	3.00418
388.275	3.22027
388.486	3.01162
388.697	3.19326
388.908	2.97851
389.119	4.03978
389.329	4.36234
389.54	3.34573
389.751	3.50593
389.962	4.19256
390.172	3.47529
390.383	3.05674
390.594	2.83632
390.804	2.94467
391.015	2.9587
391.226	3.373
391.436	3.62673
391.647	3.56026
391.858	3.67658
392.068	2.26904
392.279	2.67791
392.489	3.48362
392.7	4.07731
392.91	2.88575
393.121	2.83254
393.331	3.64509
393.542	4.10988
393.752	3.58013
393.963	3.59347
394.173	3.46408
394.384	3.78276
394.594	3.3625
394.804	2.71427
395.015	3.49207
395.225	3.72987
395.436	2.74699
395.646	3.80486
395.856	2.96637
396.067	2.44049
396.277	3.99266
396.487	3.64206
396.697	3.54629
396.908	3.77825
397.118	3.83836
397.328	3.57827
397.538	4.04841
397.749	2.91719
397.959	3.85761
398.169	3.73594
398.379	2.48861
398.589	3.91907
398.8	3.49549
399.01	3.48641
399.22	3.13978
399.43	4.8799
399.64	3.30845
399.85	3.85074
400.06	3.47025
400.27	2.99966
400.48	3.50879
400.69	4.50594
400.9	3.16853
401.11	2.86211
401.32	3.97411
401.53	3.20232
401.74	4.51182
401.95	3.95902
402.16	3.01943
402.37	3.66046
402.58	3.18205
402.79	3.88865
403	4.25167
403.209	3.09819
403.419	4.24659
403.629	3.06807
403.839	4.14576
404.049	4.03895
404.258	3.26915
404.468	3.06627
404.678	3.76074
404.888	4.22687
405.097	3.1677
405.307	3.52059
405.517	3.99383
405.727	3.84563
405.936	3.39459
406.146	3.87664
406.356	4.48116
406.565	3.60344
406.775	3.34126
406.984	3.36152
407.194	4.77497
407.404	3.64535
407.613	4.03249
407.823	4.15491
408.032	4.4099
408.242	4.42625
408.451	3.5165
408.661	3.58687
408.87	4.84292
409.08	3.35909
409.289	3.91916
409.499	3.95837
409.708	3.82158
409.918	2.53007
410.127	3.9306
410.336	4.72635
410.546	4.26667
410.755	3.56098
410.964	3.6142
411.174	3.37248
411.383	4.1004
411.592	4.1955
411.802	3.30003
412.011	4.41696
412.22	3.74323
412.429	4.97005
412.639	4.91334
412.848	4.60329
413.057	4.73863
413.266	4.71447
413.475	4.01005
413.685	4.37567
413.894	4.61359
414.103	4.68171
414.312	4.53128
414.521	3.95419
414.73	4.09249
414.939	5.41664
415.148	4.48055
415.357	4.27955
415.566	4.06332
415.776	3.93491
415.985	3.96255
416.194	4.7454
416.403	5.36932
416.611	3.51265
416.82	3.96489
417.029	4.3857
417.238	3.94253
417.447	3.82834
417.656	4.19906
417.865	4.03206
418.074	4.27804
418.283	4.36765
418.492	4.97888
418.7	4.87546
418.909	5.70115
419.118	4.87715
419.327	5.10742
419.536	4.98058
419.744	4.85133
419.953	5.90365
420.162	6.01849
420.371	5.30915
420.579	5.61803
420.788	6.43035
420.997	6.52244
421.205	6.63604
421.414	6.50067
421.623	6.55404
421.831	6.23424
422.04	6.76108
422.249	6.04428
422.457	6.431
422.666	5.84056
422.874	6.6864
423.083	6.62497
423.291	6.65783
423.5	6.52098
423.708	6.66206
423.917	7.13036
424.125	6.76016
424.334	6.53971
424.542	8.17125
424.751	7.52528
424.959	7.3696
425.167	7.56528
425.376	7.39938
425.584	6.48348
425.793	6.60575
426.001	5.84919
426.209	6.18309
426.418	5.33332
426.626	5.18328
426.834	4.99921
