Data from WindowProjectSample_Transmission__19__00019.txt Node

Date: Sat May 03 15:14:00 EDT 2025
User: jessi
Spectrometer: SR400872
Trigger mode: 0
Integration Time (sec): 5.000010E-1
Scans to average: 6
Electric dark correction enabled: true
Nonlinearity correction enabled: true
Boxcar width: 0
XAxis mode: Wavelengths
Number of Pixels in Spectrum: 3648
>>>>>Begin Spectral Data<<<<<
184.909	18419.27024
185.132	2664.26646
185.355	24333.74022
185.578	-8467.83933
185.801	312.35244
186.024	-1493.63529
186.247	885.43343
186.47	2159.37085
186.693	-33.21578
186.916	-1246.54958
187.139	-2616.46328
187.362	1641.76279
187.585	2983.67123
187.808	-3541.06962
188.031	-1800.71514
188.254	-1387.43454
188.476	-855.08322
188.699	2589.51094
188.922	-1361.87162
189.145	-10131.92088
189.368	-412.96872
189.591	-1242.74625
189.813	-1673.88514
190.036	1314.67132
190.259	1704.88449
190.482	555.49958
190.705	10491.94721
190.927	-1059.26839
191.15	3436.95115
191.373	2360.53409
191.595	-2367.86426
191.818	2446.16558
192.041	-281.42429
192.263	2806.76122
192.486	2390.60262
192.709	-5553.21087
192.931	2960.54205
193.154	-6357.81662
193.377	200414.85241
193.599	1477.44407
193.822	1757.6438
194.044	-2107.99626
194.267	441.83626
194.489	-595.13634
194.712	1404.10428
194.934	3364.03921
195.157	-13586.88522
195.379	746.77051
195.602	2256.90701
195.824	2020.25432
196.047	2172.7662
196.269	2909.11716
196.492	3381.90688
196.714	2706.81239
196.936	1194.65927
197.159	1437.72095
197.381	-2788.95113
197.604	-1191.54727
197.826	6893.1414
198.048	3105.49681
198.271	3870.69674
198.493	2275.17459
198.715	-6215.79771
198.938	-618.25495
199.16	1926.53283
199.382	1423.42911
199.604	-720.24573
199.827	9104.09067
200.049	956.97528
200.271	-2821.9385
200.493	-54056.85638
200.715	2314.84684
200.938	6970.03828
201.16	-7113.23221
201.382	-3027.12902
201.604	-2006.50845
201.826	6828.4535
202.048	882.40274
202.27	-17486.15055
202.492	4940.10034
202.715	-1195.76219
202.937	4627.82606
203.159	-2328.24678
203.381	894.16586
203.603	-3685.23115
203.825	-2893.17338
204.047	3406.36589
204.269	-2138.23333
204.491	2319.19939
204.713	1957.66912
204.935	15461.97936
205.156	1819.5803
205.378	-8058.59832
205.6	-4585.78118
205.822	9092.52579
206.044	-806.44708
206.266	3995.74327
206.488	1155.72115
206.71	29007.29276
206.932	2461.02887
207.153	-5048.33695
207.375	-1999.12817
207.597	8783.17307
207.819	4259.39155
208.041	2166.39697
208.262	-2598.82644
208.484	-1258.73972
208.706	-2729.08942
208.927	31362.79809
209.149	1032.9786
209.371	-6620.85931
209.593	1273.31222
209.814	5193.93306
210.036	-2757.89411
210.258	-5670.39216
210.479	-1364.60083
210.701	1008.86775
210.922	6480.38389
211.144	-1276.65072
211.366	-6109.61769
211.587	-570.16782
211.809	10201.1111
212.03	-1436.41687
212.252	-2559.79988
212.473	769.08041
212.695	-2398.55511
212.916	3225.40604
213.138	3239.79144
213.359	-1798.27288
213.581	6204.31418
213.802	-1814.12853
214.024	17803.60923
214.245	-3461.73166
214.466	-515.79343
214.688	1650.69253
214.909	926.93925
215.131	-102418.41845
215.352	1854.23961
215.573	2493.77578
215.795	3049.66974
216.016	3789.69038
216.237	-527.71628
216.459	7050.0856
216.68	100434.98171
216.901	-81554.44645
217.122	1903.88402
217.344	6165.27536
217.565	-58749.58881
217.786	1612.26184
218.007	1672.82016
218.228	-1221.65045
218.45	-1252.69702
218.671	-1130.01036
218.892	1123.40347
219.113	-19285.20101
219.334	-412.39548
219.555	-5057.53035
219.776	1640.00889
219.997	3514.86162
220.219	1175.70963
220.44	2421.82887
220.661	-3491.84681
220.882	3555.75631
221.103	-1099.73403
221.324	1037.86452
221.545	2364.64714
221.766	-6351.48313
221.987	4010.94185
222.208	-1929.49851
222.429	3540.05335
222.65	-72.42885
222.87	-585.57933
223.091	8161.09129
223.312	2486.99287
223.533	6591.8689
223.754	1841.9826
223.975	1497.672
224.196	-10971.07908
224.417	1057.71786
224.637	976.98285
224.858	-306.60259
225.079	6778.3714
225.3	612.13912
225.521	2071.1041
225.741	1421.45292
225.962	729.14129
226.183	254.79246
226.404	667.53896
226.624	574.51465
226.845	373.26075
227.066	402.77433
227.286	199.9204
227.507	97.21185
227.728	77.48967
227.948	129.60889
228.169	41.70429
228.389	45.06051
228.61	23.47691
228.831	35.66297
229.051	2.02875
229.272	20.0716
229.492	31.09209
229.713	9.45209
229.933	24.696
230.154	20.98186
230.374	33.08786
230.595	23.53702
230.815	13.3583
231.036	23.03705
231.256	-4.26567
231.477	42.10534
231.697	26.0858
231.917	22.83766
232.138	38.1007
232.358	76.6931
232.579	63.49528
232.799	7.34472
233.019	63.87727
233.24	77.14323
233.46	25.79403
233.68	41.61232
233.901	34.2889
234.121	18.84601
234.341	6.73672
234.561	-1.41043
234.782	15.87413
235.002	46.91429
235.222	0.16776
235.442	42.31586
235.662	19.75625
235.883	41.66918
236.103	38.90438
236.323	27.72551
236.543	20.191
236.763	29.95119
236.983	26.29987
237.203	32.24679
237.423	45.17471
237.643	63.41523
237.864	48.80794
238.084	15.04955
238.304	22.2082
238.524	32.01902
238.744	31.90491
238.964	46.79297
239.184	42.79541
239.404	45.1076
239.624	22.74681
239.843	41.64542
240.063	22.77614
240.283	16.57754
240.503	17.10334
240.723	17.17634
240.943	9.38726
241.163	13.89315
241.383	10.02289
241.603	5.4207
241.822	6.14414
242.042	4.48617
242.262	6.05185
242.482	6.59354
242.702	7.91713
242.921	2.74243
243.141	5.54452
243.361	4.83138
243.581	7.18617
243.8	5.91416
244.02	4.25172
244.24	7.69683
244.459	7.04241
244.679	14.23257
244.899	9.88561
245.118	9.9403
245.338	8.83278
245.558	10.93947
245.777	6.18501
245.997	7.55495
246.216	7.92878
246.436	4.40047
246.655	3.30088
246.875	2.76945
247.094	4.75354
247.314	1.59912
247.533	2.71624
247.753	3.64062
247.972	2.84382
248.192	0.93207
248.411	1.6182
248.631	3.39569
248.85	4.04678
249.07	2.72634
249.289	5.28046
249.508	3.75892
249.728	6.63099
249.947	6.36401
250.166	6.98312
250.386	3.61433
250.605	5.59097
250.824	9.21342
251.044	6.52864
251.263	21.02179
251.482	10.833
251.701	9.82057
251.921	0.00193
252.14	3.40419
252.359	3.68178
252.578	7.65178
252.798	3.28038
253.017	7.31579
253.236	4.05937
253.455	4.7693
253.674	9.76137
253.893	4.92972
254.112	6.31508
254.331	10.12503
254.551	7.40449
254.77	4.68493
254.989	11.68633
255.208	9.8312
255.427	13.01191
255.646	10.93256
255.865	18.07218
256.084	7.29151
256.303	9.47585
256.522	11.44391
256.741	2.70798
256.96	2.33158
257.179	8.05438
257.397	8.43053
257.616	4.73133
257.835	5.69083
258.054	11.91589
258.273	8.03123
258.492	9.09234
258.711	5.4411
258.93	2.70772
259.148	3.20884
259.367	3.33812
259.586	4.33297
259.805	2.15167
260.023	4.228
260.242	3.30777
260.461	2.10864
260.68	1.25648
260.898	3.74816
261.117	1.34429
261.336	0.8527
261.554	3.31701
261.773	3.10577
261.992	0.73645
262.21	3.0129
262.429	4.09872
262.648	6.18708
262.866	7.23344
263.085	4.96251
263.303	4.36595
263.522	7.7066
263.74	7.8548
263.959	13.139
264.178	6.3279
264.396	6.2271
264.615	4.93552
264.833	10.15446
265.051	8.56745
265.27	8.74775
265.488	9.12734
265.707	5.57099
265.925	9.21159
266.144	4.16666
266.362	5.23528
266.58	5.32809
266.799	3.75046
267.017	5.61838
267.235	4.57606
267.454	3.13426
267.672	1.91662
267.89	3.99917
268.109	3.89145
268.327	3.73021
268.545	0.80252
268.763	3.73092
268.982	1.59504
269.2	4.6973
269.418	2.61615
269.636	2.10087
269.854	3.47836
270.073	3.04106
270.291	1.42756
270.509	1.52568
270.727	3.86143
270.945	6.32934
271.163	6.14595
271.381	1.84058
271.599	2.48917
271.817	4.5294
272.036	1.68178
272.254	2.61188
272.472	2.1515
272.69	2.24052
272.908	2.2355
273.126	3.81621
273.344	4.54622
273.562	1.71727
273.779	2.23382
273.997	3.27049
274.215	3.64877
274.433	2.72088
274.651	4.04669
274.869	3.98649
275.087	2.46314
275.305	4.03411
275.523	2.1264
275.74	3.1531
275.958	5.05983
276.176	7.18402
276.394	2.21016
276.612	2.79064
276.829	2.89859
277.047	2.09108
277.265	2.74984
277.483	3.59633
277.7	3.60526
277.918	3.28403
278.136	5.80259
278.353	3.07304
278.571	1.54777
278.789	4.32571
279.006	0.72208
279.224	2.65593
279.442	4.4591
279.659	2.81667
279.877	2.29383
280.094	4.94107
280.312	0.99644
280.529	3.0618
280.747	0.95127
280.964	2.19818
281.182	5.28928
281.399	2.50246
281.617	3.53637
281.834	2.31299
282.052	2.04411
282.269	2.69461
282.487	2.34945
282.704	1.67648
282.921	2.15605
283.139	3.01514
283.356	3.73481
283.574	3.21525
283.791	1.95916
284.008	4.79053
284.226	2.53484
284.443	2.90239
284.66	3.50925
284.877	3.00249
285.095	1.93098
285.312	1.29503
285.529	1.00711
285.746	0.88244
285.964	1.88695
286.181	1.20216
286.398	1.77222
286.615	2.56493
286.832	2.35641
287.05	0.82692
287.267	1.53934
287.484	1.83309
287.701	2.41808
287.918	2.50789
288.135	2.52303
288.352	1.12719
288.569	1.4265
288.786	2.17768
289.003	1.76109
289.22	2.58972
289.437	1.61139
289.654	2.8309
289.871	2.92751
290.088	2.72866
290.305	2.06039
290.522	1.62854
290.739	1.93408
290.956	2.77552
291.173	3.4589
291.39	3.37561
291.607	2.35169
291.824	1.71874
292.04	1.10766
292.257	2.72259
292.474	2.88413
292.691	1.90082
292.908	0.91096
293.125	1.63409
293.341	0.908
293.558	4.58533
293.775	1.76829
293.992	1.97353
294.208	0.7742
294.425	0.88358
294.642	1.67267
294.858	2.43047
295.075	0.78308
295.292	1.81694
295.508	2.24738
295.725	3.5486
295.942	1.683
296.158	1.13794
296.375	1.96516
296.591	1.4817
296.808	1.72498
297.024	1.88397
297.241	2.01202
297.458	2.33352
297.674	0.31114
297.891	1.78283
298.107	1.61398
298.323	1.027
298.54	2.80499
298.756	1.39017
298.973	0.88293
299.189	2.99519
299.406	1.4932
299.622	2.82835
299.838	2.87321
300.055	2.59433
300.271	1.09345
300.487	1.26943
300.704	1.60953
300.92	1.244
301.136	4.25551
301.353	2.94578
301.569	2.08137
301.785	2.56058
302.001	2.87901
302.218	2.73247
302.434	2.95351
302.65	1.31525
302.866	1.76783
303.083	4.29476
303.299	4.40856
303.515	2.41267
303.731	2.87943
303.947	1.43173
304.163	2.14336
304.379	2.9619
304.595	2.90488
304.812	2.05444
305.028	1.96687
305.244	2.31474
305.46	3.12133
305.676	3.48385
305.892	3.96448
306.108	3.16598
306.324	2.48786
306.54	4.40229
306.756	3.22197
306.972	3.1631
307.187	2.88742
307.403	3.87944
307.619	2.31118
307.835	3.46238
308.051	3.8112
308.267	1.63382
308.483	3.87812
308.699	3.1417
308.914	2.95897
309.13	2.78264
309.346	1.8415
309.562	2.24181
309.778	1.78289
309.993	3.56047
310.209	3.27252
310.425	1.99438
310.641	3.1571
310.856	2.44727
311.072	2.23972
311.288	3.0162
311.503	3.48567
311.719	1.71776
311.935	1.79807
312.15	3.79992
312.366	3.59106
312.581	3.86146
312.797	3.44399
313.013	3.85677
313.228	2.76952
313.444	2.87692
313.659	2.56983
313.875	3.5282
314.09	2.94588
314.306	4.06107
314.521	3.66649
314.737	3.77459
314.952	3.39652
315.168	3.26145
315.383	3.76881
315.599	2.42573
315.814	2.98844
316.029	3.58139
316.245	2.70016
316.46	1.60719
316.675	4.12668
316.891	4.70248
317.106	5.68842
317.321	3.41545
317.537	3.80641
317.752	3.77662
317.967	3.84995
318.183	2.46478
318.398	2.86731
318.613	4.12819
318.828	4.49167
319.043	3.87232
319.259	2.95579
319.474	3.57047
319.689	4.17042
319.904	1.73833
320.119	4.27316
320.334	3.33218
320.549	3.1965
320.765	4.16008
320.98	3.87777
321.195	3.89609
321.41	3.37779
321.625	4.01205
321.84	4.58519
322.055	4.63058
322.27	2.86282
322.485	2.16406
322.7	3.45881
322.915	4.22667
323.13	3.00787
323.345	5.12531
323.56	4.52798
323.775	4.2716
323.989	4.08083
324.204	3.47207
324.419	4.40849
324.634	2.72638
324.849	3.50797
325.064	6.04399
325.279	4.84209
325.493	4.05718
325.708	4.3343
325.923	2.99496
326.138	3.5295
326.352	4.97219
326.567	4.37447
326.782	3.3057
326.997	3.42838
327.211	4.11666
327.426	4.0518
327.641	3.86995
327.855	2.61954
328.07	4.53485
328.285	5.65497
328.499	3.43613
328.714	4.14726
328.928	4.22598
329.143	4.08155
329.358	4.91132
329.572	4.72378
329.787	5.48532
330.001	6.10859
330.216	2.4916
330.43	6.08968
330.645	5.0519
330.859	4.72607
331.074	2.99545
331.288	3.99501
331.503	5.47145
331.717	2.84875
331.931	3.92484
332.146	4.4532
332.36	5.93031
332.575	4.59253
332.789	4.20195
333.003	4.45777
333.218	4.89982
333.432	4.28016
333.646	5.22117
333.86	6.10079
334.075	5.77495
334.289	3.86891
334.503	3.2025
334.717	4.96403
334.932	4.53216
335.146	5.02958
335.36	3.50991
335.574	4.66589
335.788	4.5203
336.003	5.14301
336.217	5.42713
336.431	5.11453
336.645	4.31985
336.859	3.89496
337.073	4.81389
337.287	5.19806
337.501	3.66184
337.715	5.41712
337.929	5.20072
338.143	3.95292
338.357	4.70529
338.571	4.49313
338.785	5.85191
338.999	4.42948
339.213	4.67169
339.427	4.07398
339.641	5.99815
339.855	4.45726
340.069	4.14549
340.283	5.9407
340.497	6.53451
340.711	5.7902
340.924	5.24376
341.138	4.39127
341.352	4.04802
341.566	5.22989
341.78	4.06947
341.993	4.76682
342.207	4.53698
342.421	5.7732
342.635	5.39671
342.848	5.1255
343.062	3.10357
343.276	4.83767
343.49	7.11397
343.703	4.96167
343.917	6.21995
344.131	6.72605
344.344	4.84187
344.558	5.17246
344.771	4.53993
344.985	6.60989
345.199	7.29839
345.412	6.13992
345.626	6.40572
345.839	4.50246
346.053	4.86563
346.266	5.11452
346.48	6.14497
346.693	6.4033
346.907	6.18396
347.12	5.10659
347.334	5.84166
347.547	6.27713
347.76	5.7855
347.974	6.85851
348.187	5.97967
348.401	6.00202
348.614	4.9269
348.827	5.83844
349.041	6.28966
349.254	4.65369
349.467	5.66177
349.681	5.29518
349.894	5.133
350.107	7.2996
350.32	8.03626
350.534	5.06845
350.747	6.0979
350.96	5.75207
351.173	5.95266
351.386	6.16569
351.6	5.71925
351.813	6.29003
352.026	6.20756
352.239	5.68445
352.452	5.87083
352.665	7.39316
352.878	6.05612
353.092	8.40604
353.305	7.2097
353.518	6.87322
353.731	5.79012
353.944	7.69132
354.157	6.41905
354.37	6.60674
354.583	5.66924
354.796	6.03029
355.009	7.63495
355.222	7.32298
355.435	7.03686
355.647	8.02422
355.86	6.48149
356.073	7.52709
356.286	6.60075
356.499	8.09711
356.712	8.04776
356.925	7.97553
357.138	8.39654
357.35	7.0557
357.563	7.12364
357.776	7.82189
357.989	7.89828
358.201	8.33761
358.414	8.12628
358.627	8.91179
358.84	7.8033
359.052	6.98328
359.265	7.28348
359.478	8.73597
359.69	5.97994
359.903	8.85238
360.116	8.90882
360.328	6.9251
360.541	8.86647
360.753	7.88019
360.966	8.02303
361.179	8.45537
361.391	8.27765
361.604	8.11491
361.816	8.4093
362.029	8.57517
362.241	8.24928
362.454	8.78898
362.666	8.20793
362.879	9.48891
363.091	8.63944
363.304	8.66176
363.516	8.75645
363.728	8.02372
363.941	9.16629
364.153	9.02897
364.366	7.59983
364.578	8.24293
364.79	9.28366
365.003	9.41305
365.215	8.60986
365.427	9.3442
365.639	9.90217
365.852	9.21793
366.064	10.45644
366.276	9.11553
366.488	9.28216
366.701	9.21407
366.913	8.87255
367.125	9.1295
367.337	8.69517
367.549	8.87973
367.762	9.00678
367.974	9.28025
368.186	9.30606
368.398	10.21015
368.61	9.87698
368.822	10.1275
369.034	9.34101
369.246	10.29896
369.458	11.6361
369.67	8.92812
369.882	10.79538
370.094	8.15803
370.306	10.61447
370.518	9.55704
370.73	9.41462
370.942	9.77332
371.154	10.14621
371.366	9.90748
371.578	10.83649
371.79	10.25264
372.002	11.06389
372.214	12.32395
372.425	10.24699
372.637	12.06448
372.849	10.77719
373.061	9.10095
373.273	10.96952
373.484	10.92832
373.696	11.39141
373.908	9.13691
374.12	11.16391
374.331	11.15875
374.543	10.15919
374.755	10.26979
374.967	10.67126
375.178	11.84814
375.39	10.90316
375.602	11.13622
375.813	9.85644
376.025	10.35436
376.236	11.06178
376.448	11.63497
376.66	11.22939
376.871	11.65285
377.083	12.02323
377.294	13.10464
377.506	11.43317
377.717	12.66786
377.929	11.98771
378.14	11.80772
378.352	11.95733
378.563	12.68942
378.775	13.12576
378.986	11.21766
379.197	12.16496
379.409	11.39664
379.62	12.42994
379.832	12.28462
380.043	11.93603
380.254	12.45022
380.466	11.41637
380.677	14.42735
380.888	13.91199
381.1	14.60212
381.311	14.53243
381.522	12.89364
381.733	14.88068
381.945	12.72919
382.156	12.1895
382.367	12.60909
382.578	15.07077
382.789	15.16655
383.001	12.25152
383.212	14.63731
383.423	14.33353
383.634	13.621
383.845	13.8038
384.056	12.86694
384.267	13.37992
384.478	13.41856
384.69	12.56561
384.901	13.87163
385.112	13.53716
385.323	15.06334
385.534	14.13822
385.745	14.26199
385.956	13.95213
386.167	13.15249
386.378	14.60292
386.588	13.63648
386.799	13.20595
387.01	13.10542
387.221	14.76662
387.432	14.2045
387.643	15.15812
387.854	13.84517
388.065	13.86325
388.275	14.45142
388.486	13.77072
388.697	14.46528
388.908	13.98143
389.119	15.35405
389.329	15.51801
389.54	14.71818
389.751	14.77929
389.962	15.25776
390.172	14.60254
390.383	14.68881
390.594	14.0035
390.804	14.0623
391.015	14.28901
391.226	15.04171
391.436	15.24243
391.647	15.29336
391.858	15.51576
392.068	14.21134
392.279	14.59134
392.489	15.75401
392.7	16.0307
392.91	15.0128
393.121	15.17804
393.331	15.83273
393.542	16.20534
393.752	16.19034
393.963	15.97381
394.173	15.88651
394.384	16.09598
394.594	15.81944
394.804	15.01571
395.015	15.76217
395.225	16.14319
395.436	15.33093
395.646	16.46491
395.856	15.95466
396.067	15.08792
396.277	16.78603
396.487	16.2392
396.697	16.46467
396.908	16.6775
397.118	16.31749
397.328	16.2115
397.538	16.90173
397.749	15.70573
397.959	16.7746
398.169	16.6306
398.379	15.22768
398.589	16.42807
398.8	16.76139
399.01	16.68672
399.22	16.18779
399.43	17.88186
399.64	16.59075
399.85	16.97276
400.06	16.85575
400.27	16.37588
400.48	16.5945
400.69	17.25678
400.9	16.39831
401.11	15.85644
401.32	16.91247
401.53	16.31025
401.74	17.48429
401.95	16.89379
402.16	16.58422
402.37	17.00664
402.58	16.37174
402.79	16.89699
403	17.09418
403.209	16.29397
403.419	17.63708
403.629	16.51772
403.839	17.68537
404.049	17.67858
404.258	16.88543
404.468	16.9371
404.678	17.84191
404.888	18.34458
405.097	17.49722
405.307	17.24617
405.517	17.80958
405.727	17.88318
405.936	17.33451
406.146	17.63915
406.356	18.40313
406.565	17.69268
406.775	17.43379
406.984	17.39595
407.194	19.01086
407.404	17.75004
407.613	18.08962
407.823	18.23482
408.032	18.66035
408.242	18.00509
408.451	17.28698
408.661	17.40643
408.87	18.66591
409.08	16.91468
409.289	17.96576
409.499	17.70014
409.708	17.70076
409.918	16.41866
410.127	18.01994
410.336	18.86527
410.546	18.45352
410.755	17.43949
410.964	17.71066
411.174	17.32922
411.383	18.41397
411.592	18.25998
411.802	17.63289
412.011	18.60013
412.22	18.06514
412.429	19.15929
412.639	18.82321
412.848	18.54776
413.057	19.23321
413.266	18.8351
413.475	18.10002
413.685	18.43301
413.894	18.62018
414.103	18.61851
414.312	18.52773
414.521	17.90784
414.73	18.56033
414.939	19.50732
415.148	18.51224
415.357	18.18514
415.566	18.18227
415.776	17.9155
415.985	18.23925
416.194	18.7173
416.403	19.60589
416.611	17.49234
416.82	18.15068
417.029	18.49094
417.238	18.0255
417.447	18.10248
417.656	18.46893
417.865	18.5692
418.074	19.25905
418.283	20.46817
418.492	22.03789
418.7	21.76356
418.909	24.13424
419.118	23.00232
419.327	23.65316
419.536	23.88472
419.744	24.57696
419.953	26.06145
420.162	26.82574
420.371	26.4757
420.579	28.03882
420.788	28.97677
420.997	29.29752
421.205	30.15901
421.414	29.56267
421.623	30.15219
421.831	29.40382
422.04	29.99613
422.249	28.61545
422.457	28.46551
422.666	27.34863
422.874	28.52984
423.083	28.51012
423.291	28.53067
423.5	28.7249
423.708	29.56985
423.917	30.27648
424.125	29.62506
424.334	29.68751
424.542	31.68423
