Data from WindowProjectSample_Transmission__43__00043.txt Node

Date: Sat May 03 16:33:57 EDT 2025
User: jessi
Spectrometer: SR400872
Trigger mode: 0
Integration Time (sec): 5.000010E-1
Scans to average: 6
Electric dark correction enabled: true
Nonlinearity correction enabled: true
Boxcar width: 0
XAxis mode: Wavelengths
Number of Pixels in Spectrum: 3648
>>>>>Begin Spectral Data<<<<<
184.909	180849.38479
185.132	1686.52686
185.355	-2071.1006
185.578	3314.72781
185.801	-599.68994
186.024	6205.02174
186.247	1117.60678
186.47	1033.41039
186.693	-78.37563
186.916	329.81792
187.139	10467.16159
187.362	3581.43823
187.585	2599.45937
187.808	-1430.82429
188.031	117.63026
188.254	7926.32345
188.476	493.58822
188.699	-4229.36247
188.922	-478.96903
189.145	-4485.07066
189.368	-494.30081
189.591	-1006.41002
189.813	-2227.16614
190.036	4934.39619
190.259	3496.77993
190.482	2169.96765
190.705	8555.96633
190.927	-1676.8795
191.15	-1662.84068
191.373	4603.73425
191.595	-2069.60572
191.818	9276.04277
192.041	-235.89615
192.263	-2450.0826
192.486	-797.17456
192.709	9601.91364
192.931	-2506.02212
193.154	-2037.41904
193.377	4765.80511
193.599	6377.46429
193.822	-1843.30306
194.044	-1918.62699
194.267	644.77565
194.489	194.67687
194.712	2176.94772
194.934	3504.30945
195.157	-7555.60662
195.379	2220.91901
195.602	5418.2247
195.824	5458.82219
196.047	-9081.71057
196.269	-10862.94896
196.492	-1226.68041
196.714	-5172.73542
196.936	4692.68221
197.159	-2430.69245
197.381	-618.90381
197.604	1273.39534
197.826	-3529.21069
198.048	-1295.34197
198.271	-12593.62437
198.493	9711.79061
198.715	-2522.35787
198.938	-703.15997
199.16	-3907.10657
199.382	1875.24816
199.604	-1361.32328
199.827	-1339.11889
200.049	-4384.5391
200.271	2551.16236
200.493	-27861.0602
200.715	4695.21657
200.938	12583.50583
201.16	-249855.64907
201.382	-5775.69359
201.604	-1115.31928
201.826	-6957.28589
202.048	-7320.42793
202.27	-4683.47006
202.492	-3498.46968
202.715	-1481.15127
202.937	-3808.76656
203.159	1133.56337
203.381	-91271.7594
203.603	-1036.44889
203.825	-1243.72716
204.047	2273.98048
204.269	-898.19789
204.491	6580.06163
204.713	-8730.88947
204.935	38089.92553
205.156	2112.19907
205.378	-7289.99829
205.6	-1735.13309
205.822	6399.77367
206.044	-314.62293
206.266	-2067.08649
206.488	750.36882
206.71	-517177.48503
206.932	-17052.56326
207.153	10773.74982
207.375	-2270.3557
207.597	15698.60993
207.819	1758.29508
208.041	6388.44727
208.262	624.79523
208.484	-997.42591
208.706	-893.7918
208.927	10268.73452
209.149	-8138.27251
209.371	-2854.76148
209.593	-2042.88462
209.814	-4244.28861
210.036	2835.89467
210.258	-685.42102
210.479	1864.04695
210.701	801.06263
210.922	4022.62171
211.144	-1456.70047
211.366	5921.84471
211.587	-754.7661
211.809	-3524.96896
212.03	-2305.6561
212.252	-371.68652
212.473	3077.34903
212.695	-842.91462
212.916	-903.00911
213.138	777.00595
213.359	-1239.76062
213.581	-3289.51229
213.802	-1297.69066
214.024	10825.76443
214.245	-1062.57083
214.466	-185.82142
214.688	-3650.43605
214.909	-821.08962
215.131	9280.00254
215.352	-1310.86685
215.573	-252149.2891
215.795	4498.24379
216.016	-3953.80819
216.237	-484.80955
216.459	-11632.39848
216.68	-1670.12205
216.901	-1671.76035
217.122	1905.26503
217.344	-8624.01927
217.565	-1594.16964
217.786	23946.30308
218.007	1044.66079
218.228	-4473.91884
218.45	-5940.64193
218.671	-1639.47849
218.892	944.36737
219.113	1619.0409
219.334	369.40935
219.555	-6274.86005
219.776	34335.12397
219.997	-6508.44767
220.219	-9205.94132
220.44	-4810.31136
220.661	-1364.08703
220.882	14154.77726
221.103	-758.40905
221.324	2765.15883
221.545	-6607.29312
221.766	-1478.53322
221.987	-421.48538
222.208	1969.54958
222.429	6452.2936
222.65	-153.96793
222.87	-529.49754
223.091	35544.9927
223.312	757.34403
223.533	-2289.48456
223.754	3670.18242
223.975	1764.79911
224.196	-818.64545
224.417	-29856.9682
224.637	-2527.60234
224.858	401.5893
225.079	3625.12614
225.3	1729.30337
225.521	3589.91785
225.741	-2568.49728
225.962	1687.32182
226.183	947.51552
226.404	1814.10001
226.624	1809.76799
226.845	1412.89495
227.066	2447.78555
227.286	652.87597
227.507	420.23935
227.728	388.57602
227.948	534.40977
228.169	141.90138
228.389	133.13867
228.61	57.67385
228.831	82.48828
229.051	11.69963
229.272	46.35302
229.492	65.57469
229.713	23.88384
229.933	51.36504
230.154	39.44285
230.374	72.25031
230.595	57.30534
230.815	36.64823
231.036	55.23121
231.256	-11.89682
231.477	105.13045
231.697	57.82698
231.917	58.51986
232.138	87.18535
232.358	177.0932
232.579	172.55304
232.799	28.60609
233.019	159.64826
233.24	247.11035
233.46	70.20974
233.68	109.43758
233.901	94.12909
234.121	50.33052
234.341	24.00776
234.561	-11.71871
234.782	36.95509
235.002	123.23128
235.222	-1.9854
235.442	100.46446
235.662	47.84626
235.883	107.72202
236.103	82.23364
236.323	67.14074
236.543	48.8037
236.763	72.0253
236.983	72.97318
237.203	83.6887
237.423	102.24519
237.643	152.42555
237.864	140.06968
238.084	27.73377
238.304	48.89357
238.524	85.20659
238.744	61.60922
238.964	110.74222
239.184	102.02312
239.404	101.74249
239.624	54.25351
239.843	101.8482
240.063	53.17481
240.283	35.18275
240.503	38.16722
240.723	35.08492
240.943	20.10574
241.163	26.56484
241.383	19.56003
241.603	9.82739
241.822	12.81712
242.042	8.51912
242.262	10.39301
242.482	11.86739
242.702	14.25353
242.921	5.26535
243.141	9.81218
243.361	7.94384
243.581	11.87296
243.8	11.56749
244.02	7.26151
244.24	14.79653
244.459	13.47126
244.679	27.46423
244.899	16.29876
245.118	21.74499
245.338	16.6098
245.558	21.11269
245.777	11.51232
245.997	13.47559
246.216	13.95324
246.436	7.2976
246.655	5.67229
246.875	4.37033
247.094	8.18761
247.314	2.84081
247.533	4.77146
247.753	5.74107
247.972	4.60577
248.192	1.84721
248.411	2.87648
248.631	5.44597
248.85	6.28925
249.07	4.68387
249.289	8.32764
249.508	5.96114
249.728	10.81066
249.947	11.65538
250.166	12.10991
250.386	6.56173
250.605	10.76872
250.824	15.14095
251.044	12.12452
251.263	37.02445
251.482	18.27286
251.701	17.58525
251.921	-0.07363
252.14	4.53611
252.359	6.12484
252.578	14.11151
252.798	4.82936
253.017	12.47334
253.236	6.83936
253.455	7.97192
253.674	17.27854
253.893	7.47399
254.112	11.52337
254.331	17.13901
254.551	14.67935
254.77	7.25869
254.989	21.69841
255.208	17.72745
255.427	20.98786
255.646	19.9099
255.865	32.26709
256.084	11.84267
256.303	16.87413
256.522	20.51489
256.741	4.49051
256.96	6.95762
257.179	12.61219
257.397	15.70149
257.616	8.50915
257.835	8.6759
258.054	21.79319
258.273	13.40097
258.492	15.78997
258.711	9.22778
258.93	4.12748
259.148	5.57201
259.367	5.57451
259.586	7.40808
259.805	3.36083
260.023	6.73659
260.242	5.23981
260.461	3.75612
260.68	2.11688
260.898	5.72102
261.117	1.99344
261.336	1.50737
261.554	5.4086
261.773	5.41524
261.992	1.38379
262.21	5.12012
262.429	6.6246
262.648	10.35121
262.866	12.2751
263.085	7.58538
263.303	7.39556
263.522	13.16206
263.74	13.39746
263.959	21.38902
264.178	11.74557
264.396	10.00993
264.615	7.19745
264.833	17.55529
265.051	14.58641
265.27	13.83213
265.488	15.615
265.707	9.62115
265.925	15.53566
266.144	6.61408
266.362	9.172
266.58	9.00477
266.799	6.39684
267.017	8.70829
267.235	7.65546
267.454	4.46658
267.672	2.94487
267.89	5.94866
268.109	6.21654
268.327	6.02698
268.545	1.47523
268.763	5.70862
268.982	2.2227
269.2	7.42487
269.418	4.22989
269.636	3.32925
269.854	6.72549
270.073	5.34192
270.291	2.4274
270.509	3.07109
270.727	5.78309
270.945	10.08382
271.163	10.16655
271.381	2.44983
271.599	4.03111
271.817	7.20677
272.036	2.73863
272.254	4.38268
272.472	3.43082
272.69	3.5801
272.908	3.36354
273.126	5.96543
273.344	7.16986
273.562	2.48075
273.779	3.70687
273.997	5.16459
274.215	6.02833
274.433	4.13501
274.651	6.47291
274.869	6.48562
275.087	4.04054
275.305	6.10644
275.523	3.46896
275.74	4.77148
275.958	7.56874
276.176	11.12238
276.394	3.42695
276.612	4.51198
276.829	4.48027
277.047	3.64385
277.265	4.34929
277.483	5.56776
277.7	6.52848
277.918	5.4464
278.136	9.02044
278.353	4.18822
278.571	2.39365
278.789	7.3253
279.006	1.62992
279.224	4.50419
279.442	6.97128
279.659	5.40582
279.877	4.05624
280.094	7.86562
280.312	1.42966
280.529	5.13474
280.747	1.20336
280.964	3.47751
281.182	8.23459
281.399	3.91946
281.617	5.3457
281.834	3.79888
282.052	3.12916
282.269	4.37034
282.487	3.43404
282.704	2.94568
282.921	3.05797
283.139	4.65294
283.356	5.9286
283.574	5.07772
283.791	2.67485
284.008	7.51707
284.226	4.0567
284.443	4.24786
284.66	5.54717
284.877	4.71473
285.095	3.32985
285.312	2.01735
285.529	1.63438
285.746	1.37847
285.964	2.80712
286.181	1.87821
286.398	2.84772
286.615	3.72587
286.832	3.41561
287.05	1.02462
287.267	2.69919
287.484	2.84168
287.701	3.98407
287.918	3.89084
288.135	3.80219
288.352	1.87824
288.569	2.12102
288.786	3.36031
289.003	2.73562
289.22	4.18
289.437	2.59474
289.654	4.09638
289.871	4.43182
290.088	4.05698
290.305	3.13887
290.522	2.34561
290.739	3.1075
290.956	4.35441
291.173	5.4781
291.39	4.69592
291.607	3.63435
291.824	2.57631
292.04	1.42258
292.257	3.88372
292.474	4.73899
292.691	2.86423
292.908	1.59906
293.125	2.55655
293.341	1.49674
293.558	7.21249
293.775	2.88741
293.992	3.15511
294.208	1.11019
294.425	1.72464
294.642	2.3725
294.858	4.08292
295.075	1.0195
295.292	2.69949
295.508	3.40416
295.725	5.24093
295.942	2.6394
296.158	1.80678
296.375	3.05805
296.591	2.32671
296.808	2.44691
297.024	2.77023
297.241	2.94162
297.458	3.20709
297.674	0.31443
297.891	2.71826
298.107	1.968
298.323	1.6099
298.54	3.89885
298.756	1.80401
298.973	0.8477
299.189	4.03667
299.406	1.83974
299.622	4.12615
299.838	3.99328
300.055	3.85454
300.271	1.02264
300.487	1.32056
300.704	1.68723
300.92	0.95461
301.136	5.57933
301.353	3.96067
301.569	2.81844
301.785	3.2685
302.001	3.72065
302.218	3.43392
302.434	3.14899
302.65	1.07898
302.866	2.40861
303.083	5.36958
303.299	5.20282
303.515	2.85207
303.731	3.00723
303.947	1.20099
304.163	1.71007
304.379	3.25079
304.595	3.6024
304.812	2.14491
305.028	1.77912
305.244	2.42688
305.46	3.76961
305.676	3.96086
305.892	4.53143
306.108	3.01118
306.324	2.15494
306.54	5.2576
306.756	3.7778
306.972	3.42635
307.187	2.56423
307.403	4.76709
307.619	2.17308
307.835	4.01041
308.051	4.8171
308.267	1.2205
308.483	4.22245
308.699	3.47975
308.914	2.99097
309.13	2.66078
309.346	0.84002
309.562	1.37487
309.778	0.96773
309.993	3.43277
310.209	2.54193
310.425	1.10419
310.641	2.34117
310.856	1.22294
311.072	1.4431
311.288	2.39897
311.503	2.83098
311.719	0.65142
311.935	0.45693
312.15	3.19984
312.366	2.79536
312.581	3.29905
312.797	2.7633
313.013	3.49336
313.228	2.02687
313.444	3.04757
313.659	1.89187
313.875	3.10928
314.09	2.51455
314.306	4.34402
314.521	3.83883
314.737	3.6144
314.952	3.20198
315.168	2.62188
315.383	3.62362
315.599	2.33846
315.814	2.1332
316.029	3.78547
316.245	1.10313
316.46	1.13348
316.675	4.25484
316.891	5.14388
317.106	6.46774
317.321	3.73459
317.537	3.5669
317.752	4.01611
317.967	3.72596
318.183	1.8335
318.398	2.30891
318.613	4.44393
318.828	4.63805
319.043	3.9636
319.259	2.34286
319.474	3.60193
319.689	4.27037
319.904	0.69955
320.119	3.78892
320.334	3.07714
320.549	2.64828
320.765	4.21305
320.98	2.94595
321.195	4.00899
321.41	2.60731
321.625	3.99996
321.84	5.15628
322.055	5.14159
322.27	1.85487
322.485	1.62142
322.7	2.83887
322.915	4.31763
323.13	1.96094
323.345	4.69489
323.56	3.83784
323.775	3.80181
323.989	3.37615
324.204	3.00453
324.419	3.77198
324.634	1.27926
324.849	2.58125
325.064	5.93188
325.279	4.2096
325.493	3.76088
325.708	4.1905
325.923	1.8673
326.138	2.06742
326.352	4.8386
326.567	4.02564
326.782	2.36543
326.997	1.92506
327.211	3.46648
327.426	3.35144
327.641	2.30027
327.855	1.3833
328.07	3.62201
328.285	5.03778
328.499	2.6262
328.714	3.43391
328.928	3.74341
329.143	3.1944
329.358	4.09644
329.572	4.39528
329.787	4.7374
330.001	5.97508
330.216	1.12119
330.43	5.61878
330.645	5.16072
330.859	4.04745
331.074	2.11167
331.288	3.21644
331.503	4.74842
331.717	1.50247
331.931	2.98542
332.146	3.05906
332.36	5.28224
332.575	3.76254
332.789	3.23289
333.003	2.8516
333.218	3.70192
333.432	2.45292
333.646	3.40349
333.86	4.88222
334.075	5.19831
334.289	2.67484
334.503	2.04739
334.717	4.28317
334.932	3.64831
335.146	4.73094
335.36	2.96995
335.574	3.58137
335.788	3.68943
336.003	4.56493
336.217	4.10343
336.431	3.6607
336.645	2.1689
336.859	1.63675
337.073	2.72238
337.287	3.53369
337.501	1.70656
337.715	3.21925
337.929	3.72992
338.143	1.69893
338.357	2.82939
338.571	1.8855
338.785	3.55759
338.999	2.22379
339.213	2.54314
339.427	1.257
339.641	4.13428
339.855	2.63854
340.069	2.24273
340.283	4.03964
340.497	4.97896
340.711	3.4123
340.924	2.51203
341.138	1.62109
341.352	1.23016
341.566	3.09863
341.78	1.14154
341.993	2.25469
342.207	1.48131
342.421	3.19314
342.635	3.1442
342.848	2.10171
343.062	0.57978
343.276	2.18659
343.49	5.30052
343.703	2.1429
343.917	3.70977
344.131	3.97092
344.344	2.12589
344.558	2.1216
344.771	1.77786
344.985	4.55574
345.199	4.77671
345.412	3.11257
345.626	3.09916
345.839	1.07247
346.053	1.60386
346.266	1.47944
346.48	3.79046
346.693	3.18659
346.907	3.39551
347.12	1.79503
347.334	3.006
347.547	3.22546
347.76	2.60239
347.974	4.04586
348.187	3.19817
348.401	2.40723
348.614	2.21856
348.827	2.39711
349.041	3.403
349.254	0.85185
349.467	2.62246
349.681	1.21782
349.894	2.03536
350.107	4.15749
350.32	4.48361
350.534	1.12347
350.747	2.14023
350.96	1.80389
351.173	2.0716
351.386	2.37282
351.6	2.18847
351.813	1.90622
352.026	2.62694
352.239	1.4934
352.452	2.1874
352.665	3.80501
352.878	2.35964
353.092	5.2802
353.305	3.44848
353.518	3.05435
353.731	1.69002
353.944	4.21487
354.157	1.73142
354.37	1.80999
354.583	1.22282
354.796	1.08986
355.009	3.76909
355.222	2.63113
355.435	2.7506
355.647	3.88541
355.86	1.72702
356.073	2.32491
356.286	2.0656
356.499	3.25381
356.712	2.99828
356.925	3.00477
357.138	3.64268
357.35	1.47597
357.563	2.05149
357.776	2.71429
357.989	2.27315
358.201	3.14983
358.414	2.58884
358.627	3.79164
358.84	2.30058
359.052	1.35343
359.265	1.43593
359.478	3.67184
359.69	-0.42451
359.903	3.12849
360.116	3.38283
360.328	0.76469
360.541	3.32258
360.753	1.55393
360.966	1.94384
361.179	2.06182
361.391	1.98098
361.604	1.41835
361.816	1.89752
362.029	1.70687
362.241	1.5696
362.454	1.91085
362.666	1.47724
362.879	2.65925
363.091	1.99858
363.304	1.66766
363.516	2.25971
363.728	1.11865
363.941	2.82483
364.153	2.08756
364.366	0.26621
364.578	1.28033
364.79	2.8799
365.003	2.47647
365.215	1.93342
365.427	2.88363
365.639	3.54672
365.852	2.66743
366.064	4.49887
366.276	1.82924
366.488	2.85119
366.701	1.94744
366.913	2.09844
367.125	1.83485
367.337	1.73155
367.549	1.90837
367.762	2.34759
367.974	2.25165
368.186	2.03404
368.398	3.37085
368.61	3.11496
368.822	2.97897
369.034	2.42018
369.246	3.41221
369.458	5.20766
369.67	1.60676
369.882	4.32033
370.094	0.47255
370.306	4.00319
370.518	2.14219
370.73	1.67433
370.942	1.84401
371.154	2.11541
371.366	1.95663
371.578	2.9352
371.79	1.94409
372.002	3.82608
372.214	4.47429
372.425	2.40781
372.637	3.9902
372.849	2.62435
373.061	0.40594
373.273	3.00168
373.484	3.19566
373.696	3.47014
373.908	0.3188
374.12	3.55681
374.331	3.09902
374.543	1.55892
374.755	1.59384
374.967	2.57179
375.178	3.51431
375.39	2.40076
375.602	2.78729
375.813	1.28607
376.025	1.39855
376.236	2.62213
376.448	2.70134
376.66	2.30708
376.871	2.55511
377.083	3.56402
377.294	4.05744
377.506	2.33156
377.717	3.82806
377.929	2.88888
378.14	2.14485
378.352	3.28842
378.563	3.5022
378.775	3.96268
378.986	1.7338
379.197	2.72277
379.409	2.13461
379.62	3.42176
379.832	3.03625
380.043	2.63497
380.254	2.93263
380.466	1.68521
380.677	5.69108
380.888	4.84889
381.1	5.45241
381.311	5.41738
381.522	3.22056
381.733	5.68599
381.945	2.67268
382.156	2.65966
382.367	2.53388
382.578	5.83138
382.789	5.71848
383.001	2.29869
383.212	4.50765
383.423	4.91276
383.634	4.15968
383.845	3.74928
384.056	2.62471
384.267	3.17601
384.478	3.31959
384.69	2.03927
384.901	3.86805
385.112	3.5511
385.323	4.81895
385.534	3.67125
385.745	3.66079
385.956	3.72522
386.167	2.41295
386.378	3.72191
386.588	2.63886
386.799	2.49885
387.01	1.76121
387.221	4.27062
387.432	3.51071
387.643	5.24522
387.854	3.14474
388.065	3.11654
388.275	3.39227
388.486	2.85957
388.697	3.36584
388.908	2.97753
389.119	4.5389
389.329	5.05513
389.54	3.54863
389.751	4.03446
389.962	4.83702
390.172	3.55394
390.383	3.52712
390.594	2.94699
390.804	3.00846
391.015	3.21471
391.226	3.77932
391.436	4.28002
391.647	4.07324
391.858	4.36051
392.068	2.18708
392.279	2.95548
392.489	4.00407
392.7	4.6472
392.91	3.22557
393.121	3.21307
393.331	4.48752
393.542	4.9001
393.752	4.72019
393.963	4.39876
394.173	4.33971
394.384	4.54529
394.594	3.98162
394.804	3.10078
395.015	3.9181
395.225	4.59185
395.436	3.25778
395.646	4.669
395.856	3.81866
396.067	2.89237
396.277	5.02802
396.487	4.45965
396.697	4.54544
396.908	5.26271
397.118	4.71061
397.328	4.59393
397.538	5.23994
397.749	3.89891
397.959	5.13982
398.169	4.95005
398.379	2.84204
398.589	4.68463
398.8	4.759
399.01	4.78457
399.22	4.47747
399.43	6.53406
399.64	4.34954
399.85	5.16482
400.06	4.61425
400.27	3.99688
400.48	4.6431
400.69	5.84852
400.9	4.01874
401.11	3.8428
401.32	5.46829
401.53	4.27426
401.74	5.96996
401.95	5.4043
402.16	4.4402
402.37	5.11785
402.58	4.46088
402.79	5.47124
403	5.65172
403.209	4.38824
403.419	5.7552
403.629	4.41183
403.839	5.8174
404.049	5.84658
404.258	4.75205
404.468	4.76352
404.678	5.88871
404.888	6.29836
405.097	5.0819
405.307	5.15171
405.517	5.82337
405.727	5.66569
405.936	5.02687
406.146	5.72111
406.356	6.5912
406.565	5.20117
406.775	4.86552
406.984	4.94432
407.194	7.05735
407.404	5.55077
407.613	5.87148
407.823	6.27776
408.032	6.63215
408.242	6.19541
408.451	5.05334
408.661	5.45263
408.87	7.03502
409.08	4.85759
409.289	5.88491
409.499	6.00749
409.708	5.57015
409.918	3.97657
410.127	6.1726
410.336	7.28685
410.546	6.52415
410.755	5.53859
410.964	5.58776
411.174	5.01413
411.383	6.2341
411.592	6.03932
411.802	5.36672
412.011	6.84857
412.22	5.75981
412.429	7.16153
412.639	7.26671
412.848	6.86923
413.057	7.67845
413.266	7.14067
413.475	6.2398
413.685	6.95345
413.894	6.91114
414.103	7.06814
414.312	7.13227
414.521	5.975
414.73	6.53121
414.939	8.27252
415.148	6.93185
415.357	6.74632
415.566	6.59164
415.776	6.50482
415.985	6.17785
416.194	7.40733
416.403	8.36046
416.611	5.81335
416.82	6.33728
417.029	7.19684
417.238	6.34071
417.447	6.55487
417.656	6.93887
417.865	6.627
418.074	6.9063
418.283	7.14752
418.492	8.17142
418.7	7.89457
418.909	8.97366
419.118	7.50146
419.327	7.94392
419.536	7.68101
419.744	7.42968
419.953	8.7231
420.162	8.94573
420.371	8.02129
420.579	8.58761
420.788	9.48096
420.997	9.67512
421.205	9.69239
421.414	9.45165
421.623	9.2794
421.831	8.99679
422.04	9.70037
422.249	8.71205
422.457	9.17938
422.666	8.45098
422.874	9.42475
423.083	9.58984
423.291	9.51616
423.5	9.58895
423.708	9.68492
423.917	10.53911
424.125	9.64952
424.334	9.53068
424.542	11.29079
424.751	10.74062
424.959	10.1805
425.167	10.54001
425.376	10.33409
425.584	9.13368
425.793	9.12859
426.001	8.03296
426.209	9.00224
426.418	8.09609
