Data from WindowProjectSample_Transmission__26__00026.txt Node

Date: Sat May 03 15:25:40 EDT 2025
User: jessi
Spectrometer: SR400872
Trigger mode: 0
Integration Time (sec): 5.000010E-1
Scans to average: 6
Electric dark correction enabled: true
Nonlinearity correction enabled: true
Boxcar width: 0
XAxis mode: Wavelengths
Number of Pixels in Spectrum: 3648
>>>>>Begin Spectral Data<<<<<
184.909	18953.53134
185.132	2697.59331
185.355	24164.09388
185.578	-8096.83149
185.801	441.71243
186.024	-1521.43675
186.247	843.65211
186.47	1640.81461
186.693	-426.25461
186.916	-1707.2663
187.139	-2707.25712
187.362	1566.92078
187.585	3213.98404
187.808	-3274.90733
188.031	-566.16566
188.254	-1403.49413
188.476	-853.80797
188.699	2349.42427
188.922	-161.64976
189.145	-9969.39995
189.368	-317.99225
189.591	-1136.98392
189.813	-1699.82863
190.036	1283.11761
190.259	1614.85901
190.482	531.84006
190.705	10597.37492
190.927	-937.67128
191.15	3423.62015
191.373	2080.40933
191.595	-2335.39255
191.818	2422.97065
192.041	-191.7584
192.263	2506.21719
192.486	1680.74186
192.709	-5585.38228
192.931	2706.54703
193.154	-6159.67666
193.377	177286.84747
193.599	1270.15796
193.822	1746.97506
194.044	-2179.91383
194.267	434.74395
194.489	-579.36287
194.712	1373.62139
194.934	3355.99401
195.157	-16812.27995
195.379	763.07027
195.602	2108.5416
195.824	1977.75877
196.047	2210.4839
196.269	2979.54278
196.492	3430.45068
196.714	2516.90079
196.936	1129.18435
197.159	1319.45343
197.381	-1947.69084
197.604	-1113.39299
197.826	6440.09436
198.048	2976.83555
198.271	4202.33074
198.493	2094.97359
198.715	-5981.04818
198.938	-525.64318
199.16	1890.05733
199.382	1419.58571
199.604	-582.37949
199.827	9749.0764
200.049	946.06521
200.271	-2978.03902
200.493	-52246.63402
200.715	2352.08613
200.938	6746.46639
201.16	-7206.74825
201.382	-2702.51112
201.604	-1884.0407
201.826	6290.77199
202.048	886.28217
202.27	-14453.35
202.492	4398.26105
202.715	-1094.05059
202.937	4567.92481
203.159	-2123.55416
203.381	847.55109
203.603	-3660.05101
203.825	-2552.884
204.047	3395.37136
204.269	-2224.29375
204.491	1940.47476
204.713	1899.73253
204.935	14579.41395
205.156	1719.89051
205.378	-8053.29005
205.6	-4073.26445
205.822	9310.63842
206.044	-500.42372
206.266	3565.73936
206.488	1091.15886
206.71	27458.1214
206.932	2345.31703
207.153	-4551.08795
207.375	-1755.93431
207.597	8553.17685
207.819	4472.34444
208.041	2177.80242
208.262	-2074.8446
208.484	-1262.77941
208.706	-2593.14256
208.927	24679.31239
209.149	948.00793
209.371	-6055.14754
209.593	1282.92905
209.814	5103.85298
210.036	-2445.23076
210.258	-4939.71281
210.479	-1303.80873
210.701	863.16058
210.922	6763.95292
211.144	-1189.77502
211.366	-5915.65986
211.587	-611.09242
211.809	9581.46779
212.03	-1288.1495
212.252	-1666.72786
212.473	804.44424
212.695	-2328.76758
212.916	3054.47805
213.138	3437.72194
213.359	-1769.77537
213.581	6523.35406
213.802	-1914.40321
214.024	16592.63956
214.245	-2950.72783
214.466	-613.3487
214.688	1611.22638
214.909	821.29106
215.131	-97885.53059
215.352	1486.12363
215.573	2512.93367
215.795	3007.28176
216.016	4147.42451
216.237	-611.53853
216.459	5905.9004
216.68	103040.73459
216.901	-82280.083
217.122	1661.32553
217.344	5841.19799
217.565	-55660.65273
217.786	1540.43252
218.007	2133.71329
218.228	-942.57139
218.45	-1248.3155
218.671	-1178.51416
218.892	1177.80744
219.113	-18174.72509
219.334	-602.13267
219.555	-5881.7612
219.776	1543.62976
219.997	3423.64773
220.219	1092.50529
220.44	2269.04463
220.661	-2546.21557
220.882	3332.18598
221.103	-1007.96805
221.324	979.75313
221.545	2210.11065
221.766	-6076.5969
221.987	3207.00136
222.208	-1755.68773
222.429	3488.6572
222.65	-90.02604
222.87	-455.22421
223.091	7651.2793
223.312	2425.31744
223.533	6443.45482
223.754	1847.48271
223.975	1454.78813
224.196	-9691.32307
224.417	1011.24162
224.637	908.67698
224.858	-450.97136
225.079	6416.11359
225.3	619.81503
225.521	2051.20783
225.741	1467.11351
225.962	748.09228
226.183	251.27999
226.404	635.34736
226.624	593.59466
226.845	384.79809
227.066	425.52845
227.286	196.80667
227.507	92.98111
227.728	72.50063
227.948	124.25261
228.169	38.93299
228.389	43.6297
228.61	25.33119
228.831	36.04163
229.051	4.02655
229.272	19.82068
229.492	29.90642
229.713	8.89438
229.933	23.33933
230.154	18.2596
230.374	31.83534
230.595	23.47756
230.815	16.51974
231.036	21.46101
231.256	-4.35643
231.477	42.07949
231.697	25.08186
231.917	23.98814
232.138	37.49049
232.358	69.53007
232.579	62.37486
232.799	10.35162
233.019	65.75682
233.24	76.30766
233.46	24.77683
233.68	38.58096
233.901	29.94752
234.121	20.35791
234.341	6.3076
234.561	-3.23935
234.782	16.17933
235.002	44.82635
235.222	-2.50689
235.442	41.20948
235.662	19.08219
235.883	40.78951
236.103	38.20202
236.323	21.28834
236.543	18.01882
236.763	29.18886
236.983	27.47806
237.203	27.9293
237.423	43.14477
237.643	60.29224
237.864	53.09446
238.084	12.85933
238.304	20.57697
238.524	32.65155
238.744	28.25899
238.964	44.89141
239.184	44.60682
239.404	44.31303
239.624	23.79095
239.843	40.99872
240.063	23.63042
240.283	16.41092
240.503	16.81138
240.723	16.9202
240.943	8.74951
241.163	14.06454
241.383	9.60363
241.603	5.08596
241.822	6.60938
242.042	4.5708
242.262	5.92593
242.482	6.77652
242.702	8.07368
242.921	2.57679
243.141	5.52768
243.361	4.6524
243.581	7.41032
243.8	5.63936
244.02	3.73006
244.24	7.2833
244.459	6.9901
244.679	14.14644
244.899	8.38666
245.118	10.40236
245.338	8.73395
245.558	10.55125
245.777	6.11079
245.997	7.16584
246.216	7.75901
246.436	4.04058
246.655	3.24299
246.875	2.52524
247.094	4.72057
247.314	1.45454
247.533	2.52017
247.753	3.34244
247.972	2.71708
248.192	0.8519
248.411	1.72049
248.631	3.02138
248.85	4.09726
249.07	2.63745
249.289	4.97132
249.508	3.4168
249.728	5.54528
249.947	6.80831
250.166	6.53928
250.386	3.28828
250.605	5.23316
250.824	8.09504
251.044	5.95519
251.263	20.57703
251.482	9.43932
251.701	10.03449
251.921	-0.22329
252.14	3.08889
252.359	3.65691
252.578	8.35736
252.798	3.16962
253.017	7.12697
253.236	3.77962
253.455	4.4449
253.674	9.40623
253.893	4.63546
254.112	5.85736
254.331	8.89081
254.551	7.33861
254.77	3.69633
254.989	11.6142
255.208	9.46301
255.427	11.62815
255.646	10.45388
255.865	17.67814
256.084	6.70144
256.303	8.45495
256.522	11.54823
256.741	1.98888
256.96	2.8423
257.179	6.66994
257.397	8.61225
257.616	4.03001
257.835	4.96477
258.054	11.64194
258.273	7.45941
258.492	8.99411
258.711	4.76473
258.93	2.25253
259.148	2.91249
259.367	3.41131
259.586	4.36469
259.805	1.91196
260.023	4.18604
260.242	3.33211
260.461	2.17523
260.68	1.2761
260.898	3.88617
261.117	1.17254
261.336	0.85712
261.554	3.25885
261.773	3.20476
261.992	0.63727
262.21	2.99586
262.429	3.72604
262.648	6.40123
262.866	7.19184
263.085	4.31509
263.303	4.39847
263.522	7.62312
263.74	7.67934
263.959	12.65899
264.178	6.48466
264.396	5.47045
264.615	4.25167
264.833	9.61885
265.051	8.35963
265.27	8.1416
265.488	8.87349
265.707	5.40663
265.925	9.36141
266.144	3.93568
266.362	4.95952
266.58	4.9199
266.799	4.16302
267.017	5.12536
267.235	4.24467
267.454	2.88452
267.672	1.78786
267.89	3.77071
268.109	4.15993
268.327	3.53346
268.545	0.76288
268.763	3.76106
268.982	1.56688
269.2	4.37005
269.418	2.69384
269.636	1.92059
269.854	3.44993
270.073	2.9653
270.291	1.48605
270.509	1.74196
270.727	3.62347
270.945	6.03516
271.163	6.21964
271.381	1.49981
271.599	2.55759
271.817	4.1264
272.036	1.45393
272.254	2.65593
272.472	1.97193
272.69	2.05936
272.908	2.15598
273.126	3.47162
273.344	4.70354
273.562	1.67143
273.779	2.19089
273.997	3.36298
274.215	3.83868
274.433	2.55202
274.651	3.90985
274.869	3.95375
275.087	2.16586
275.305	3.99898
275.523	1.81254
275.74	2.59213
275.958	4.76455
276.176	6.62598
276.394	2.29306
276.612	2.91175
276.829	2.65271
277.047	2.0903
277.265	2.54638
277.483	3.33704
277.7	3.58848
277.918	2.83192
278.136	5.38077
278.353	2.5008
278.571	1.46043
278.789	4.56289
279.006	0.87375
279.224	2.56803
279.442	4.43711
279.659	2.94492
279.877	2.16782
280.094	4.79617
280.312	0.86362
280.529	3.1526
280.747	1.01276
280.964	2.20442
281.182	5.41664
281.399	2.46085
281.617	3.24421
281.834	2.38996
282.052	1.79512
282.269	2.52469
282.487	2.30234
282.704	1.65297
282.921	2.09141
283.139	2.99754
283.356	3.76112
283.574	3.32937
283.791	1.73554
284.008	4.55491
284.226	2.29309
284.443	2.89522
284.66	3.52696
284.877	2.93305
285.095	2.0504
285.312	1.422
285.529	0.92745
285.746	0.70088
285.964	1.83898
286.181	1.23662
286.398	1.78766
286.615	2.51921
286.832	2.30057
287.05	0.82123
287.267	1.59339
287.484	1.74163
287.701	2.32531
287.918	2.43884
288.135	2.37362
288.352	1.08957
288.569	1.31914
288.786	2.14247
289.003	1.52818
289.22	2.4881
289.437	1.70047
289.654	2.59758
289.871	2.92982
290.088	2.58259
290.305	1.96889
290.522	1.40661
290.739	1.92416
290.956	2.81168
291.173	3.50831
291.39	3.32609
291.607	2.20615
291.824	1.4586
292.04	0.93207
292.257	2.48175
292.474	2.92853
292.691	1.74348
292.908	1.01349
293.125	1.7346
293.341	0.89633
293.558	4.69044
293.775	1.76151
293.992	1.86964
294.208	0.71779
294.425	1.04519
294.642	1.72226
294.858	2.72398
295.075	0.61713
295.292	1.56454
295.508	2.10529
295.725	3.38544
295.942	1.60596
296.158	1.23537
296.375	1.85348
296.591	1.27833
296.808	1.4342
297.024	1.78603
297.241	2.02097
297.458	2.14491
297.674	0.15051
297.891	1.71909
298.107	1.19743
298.323	0.93859
298.54	2.55593
298.756	1.13196
298.973	0.49815
299.189	2.68248
299.406	0.95268
299.622	2.67336
299.838	2.631
300.055	2.36696
300.271	0.65047
300.487	0.86794
300.704	0.94478
300.92	0.74652
301.136	3.78529
301.353	2.36249
301.569	1.71016
301.785	2.14099
302.001	2.59857
302.218	2.02936
302.434	2.13271
302.65	0.54133
302.866	1.52714
303.083	3.57245
303.299	3.29325
303.515	1.73192
303.731	1.93793
303.947	0.81695
304.163	1.03422
304.379	2.05338
304.595	2.2264
304.812	1.28338
305.028	1.00293
305.244	1.51487
305.46	2.3855
305.676	2.60726
305.892	3.09568
306.108	1.87903
306.324	1.42947
306.54	3.36697
306.756	2.39011
306.972	2.42578
307.187	1.4507
307.403	3.00568
307.619	1.25577
307.835	2.68542
308.051	3.09564
308.267	0.65713
308.483	2.57155
308.699	2.28043
308.914	1.90679
309.13	1.63692
309.346	0.48983
309.562	0.87744
309.778	0.56266
309.993	2.23478
310.209	1.64217
310.425	0.70554
310.641	1.47126
310.856	0.87908
311.072	0.84682
311.288	1.58346
311.503	1.89246
311.719	0.27855
311.935	0.18663
312.15	2.05029
312.366	1.74846
312.581	2.24202
312.797	1.86518
313.013	2.32795
313.228	1.1913
313.444	1.88555
313.659	1.29979
313.875	2.12701
314.09	1.80024
314.306	2.92203
314.521	2.44968
314.737	2.30384
314.952	1.97915
315.168	1.68116
315.383	2.37435
315.599	1.61619
315.814	1.44173
316.029	2.482
316.245	0.59536
316.46	0.62096
316.675	3.09444
316.891	3.54637
317.106	4.37555
317.321	2.52195
317.537	2.39237
317.752	2.60849
317.967	2.55875
318.183	1.09643
318.398	1.45489
318.613	2.67881
318.828	3.06096
319.043	2.56469
319.259	1.46147
319.474	2.32192
319.689	2.77304
319.904	0.34265
320.119	2.53442
320.334	2.26829
320.549	1.82806
320.765	2.71776
320.98	2.08464
321.195	2.61215
321.41	1.6415
321.625	2.62967
321.84	3.48576
322.055	3.55452
322.27	1.32012
322.485	1.15004
322.7	2.17133
322.915	3.0207
323.13	1.06944
323.345	3.24326
323.56	2.37134
323.775	2.58313
323.989	2.46915
324.204	2.20266
324.419	2.54145
324.634	0.86659
324.849	1.75502
325.064	4.04263
325.279	2.74583
325.493	2.35004
325.708	2.8414
325.923	1.22494
326.138	1.22574
326.352	3.19899
326.567	2.62897
326.782	1.57605
326.997	1.29919
327.211	2.3719
327.426	2.30258
327.641	1.50561
327.855	0.59288
328.07	2.38926
328.285	3.24167
328.499	1.62679
328.714	2.39274
328.928	2.85579
329.143	1.99243
329.358	2.74951
329.572	3.08811
329.787	2.91526
330.001	4.24364
330.216	0.63911
330.43	3.66177
330.645	3.46153
330.859	2.50401
331.074	1.37445
331.288	2.0131
331.503	3.10752
331.717	0.90228
331.931	2.0778
332.146	1.97987
332.36	3.56051
332.575	2.41407
332.789	2.19785
333.003	1.74854
333.218	2.55604
333.432	1.67485
333.646	2.53613
333.86	3.13273
334.075	3.50539
334.289	1.7444
334.503	1.35955
334.717	2.60997
334.932	2.37074
335.146	3.18558
335.36	1.73397
335.574	2.51346
335.788	2.49857
336.003	2.81775
336.217	2.64098
336.431	2.63175
336.645	1.29304
336.859	1.01685
337.073	1.72938
337.287	2.08888
337.501	1.08012
337.715	2.23314
337.929	2.63282
338.143	1.14686
338.357	1.98592
338.571	1.02784
338.785	2.38645
338.999	1.53972
339.213	1.66763
339.427	0.75101
339.641	2.83836
339.855	1.62995
340.069	1.44314
340.283	2.95995
340.497	3.4086
340.711	2.26348
340.924	1.50221
341.138	0.98051
341.352	0.78082
341.566	2.19506
341.78	0.739
341.993	1.42063
342.207	1.02371
342.421	2.11168
342.635	2.15918
342.848	1.34883
343.062	0.00121
343.276	1.25145
343.49	3.9162
343.703	1.25841
343.917	2.5532
344.131	2.63463
344.344	1.15322
344.558	1.35342
344.771	1.19924
344.985	3.14665
345.199	3.10899
345.412	2.03456
345.626	2.15102
345.839	0.52837
346.053	0.89984
346.266	0.93954
346.48	2.54073
346.693	2.09807
346.907	2.29563
347.12	1.19177
347.334	2.06943
347.547	2.29604
347.76	1.63216
347.974	2.94015
348.187	2.15948
348.401	1.65577
348.614	1.3585
348.827	1.54927
349.041	2.36258
349.254	0.33928
349.467	1.65551
349.681	0.65517
349.894	1.31898
350.107	3.11235
350.32	3.14072
350.534	0.49199
350.747	1.41382
350.96	1.06764
351.173	1.28916
351.386	1.76809
351.6	1.32743
351.813	1.09714
352.026	1.77816
352.239	0.76937
352.452	1.14077
352.665	2.18649
352.878	1.62446
353.092	3.7416
353.305	2.32518
353.518	1.9894
353.731	1.07597
353.944	2.94453
354.157	1.19095
354.37	0.95349
354.583	0.93424
354.796	0.43614
355.009	2.61949
355.222	1.78265
355.435	1.80677
355.647	2.58405
355.86	0.79544
356.073	1.76785
356.286	1.36357
356.499	2.33713
356.712	1.76538
356.925	1.97257
357.138	2.3897
357.35	0.94714
357.563	1.37581
357.776	1.76188
357.989	1.19037
358.201	2.00475
358.414	1.7319
358.627	2.54708
358.84	1.39533
359.052	0.9521
359.265	0.70059
359.478	2.5495
359.69	-0.3711
359.903	1.96742
360.116	2.05651
360.328	0.4457
360.541	2.22769
360.753	0.71461
360.966	1.20366
361.179	1.15306
361.391	1.04694
361.604	0.60072
361.816	1.04952
362.029	0.90675
362.241	0.81631
362.454	0.95249
362.666	0.74301
362.879	1.37188
363.091	1.24744
363.304	0.80343
363.516	1.32997
363.728	0.55449
363.941	1.89573
364.153	0.79851
364.366	-0.07612
364.578	0.6539
364.79	1.82325
365.003	1.31
365.215	1.19288
365.427	1.78566
365.639	2.4564
365.852	1.695
366.064	3.06526
366.276	0.95373
366.488	1.93557
366.701	0.89678
366.913	1.3253
367.125	1.36083
367.337	1.05735
367.549	1.16878
367.762	1.4658
367.974	1.5883
368.186	0.84114
368.398	2.25005
368.61	1.98496
368.822	1.9057
369.034	1.55572
369.246	1.95759
369.458	3.2072
369.67	0.69532
369.882	2.89976
370.094	0.12215
370.306	2.76066
370.518	1.10222
370.73	0.75393
370.942	0.94964
371.154	1.10019
371.366	0.98357
371.578	1.48262
371.79	0.67081
372.002	2.33481
372.214	2.67556
372.425	1.52966
372.637	2.23466
372.849	1.38168
373.061	0.00337
373.273	1.77455
373.484	1.92156
373.696	2.13522
373.908	-0.15158
374.12	2.21028
374.331	1.75061
374.543	0.684
374.755	0.7027
374.967	1.58995
375.178	1.95533
375.39	1.32066
375.602	1.533
375.813	0.64408
376.025	0.41484
376.236	1.29785
376.448	1.41606
376.66	0.85298
376.871	0.87771
377.083	2.13398
377.294	2.08905
377.506	1.00208
377.717	2.24735
377.929	1.41004
378.14	0.78132
378.352	1.76493
378.563	1.56655
378.775	2.2777
378.986	0.86413
379.197	1.20097
379.409	1.16979
379.62	2.00494
379.832	1.61537
380.043	1.24459
380.254	1.33109
380.466	0.49681
380.677	3.5553
380.888	2.99805
381.1	3.20527
381.311	3.11767
381.522	1.3501
381.733	3.60351
381.945	1.14886
382.156	1.53864
382.367	1.11448
382.578	3.57148
382.789	3.46115
383.001	1.12457
383.212	2.22553
383.423	2.52722
383.634	2.17443
383.845	1.72434
384.056	0.97461
384.267	1.41497
384.478	1.34164
384.69	0.5863
384.901	1.90945
385.112	1.5319
385.323	2.44982
385.534	1.71977
385.745	1.7808
385.956	1.74803
386.167	0.68099
386.378	1.77601
386.588	0.64303
386.799	0.71597
387.01	0.2384
387.221	2.25691
387.432	1.26915
387.643	2.84416
387.854	1.12463
388.065	1.17587
388.275	1.28754
388.486	1.21589
388.697	1.40063
388.908	1.19986
389.119	2.45707
389.329	2.67433
389.54	1.40825
389.751	1.91964
389.962	2.21569
390.172	1.6078
390.383	1.25628
390.594	0.92972
390.804	0.92739
391.015	1.20367
391.226	1.63132
391.436	1.96055
391.647	1.8211
391.858	2.03734
392.068	0.4984
392.279	0.78589
392.489	1.62018
392.7	2.27501
392.91	1.07452
393.121	1.23128
393.331	2.0011
393.542	2.44653
393.752	1.93187
393.963	2.02398
394.173	1.94796
394.384	2.2895
394.594	1.71155
394.804	1.01304
395.015	1.84498
395.225	2.26397
395.436	1.18089
395.646	2.30854
395.856	1.49335
396.067	0.92294
396.277	2.71183
396.487	2.08746
396.697	2.13252
396.908	2.62227
397.118	2.57609
397.328	2.16813
397.538	2.64728
397.749	1.6511
397.959	2.67297
398.169	2.62841
398.379	1.27261
398.589	2.55049
398.8	2.31345
399.01	2.22101
399.22	2.1535
399.43	3.75359
399.64	2.18441
399.85	2.78237
400.06	2.45685
400.27	1.99348
400.48	2.27886
400.69	3.23381
400.9	2.1366
401.11	1.86945
401.32	3.06347
401.53	2.17319
401.74	3.59962
401.95	2.93009
402.16	2.28698
402.37	2.93066
402.58	2.23751
402.79	3.16596
403	3.15385
403.209	2.27332
403.419	3.29061
403.629	2.40892
403.839	3.38485
404.049	3.47416
404.258	2.52273
404.468	2.44008
404.678	3.41031
404.888	3.78032
405.097	2.88233
405.307	2.88656
405.517	3.41361
405.727	3.5724
405.936	2.86363
406.146	3.2967
406.356	4.11397
406.565	2.98511
406.775	2.7711
406.984	2.81492
407.194	4.57891
407.404	3.26234
407.613	3.54127
407.823	3.81133
408.032	4.13684
408.242	3.97421
408.451	2.95749
408.661	3.41812
408.87	4.49797
409.08	2.78618
409.289	3.71635
409.499	3.71912
409.708	3.51706
409.918	2.18884
410.127	3.60507
410.336	4.76821
410.546	4.24977
410.755	3.51582
410.964	3.31554
411.174	2.88224
411.383	3.99433
411.592	3.94635
411.802	3.04902
412.011	4.31656
412.22	3.6028
412.429	5.06542
412.639	4.83616
412.848	4.53991
413.057	4.97466
413.266	4.5808
413.475	3.9199
413.685	4.34843
413.894	4.48426
414.103	4.71428
414.312	4.53632
414.521	3.85283
414.73	4.3038
414.939	5.33903
415.148	4.4995
415.357	4.21235
415.566	4.08696
415.776	4.08028
415.985	3.96745
416.194	4.82305
416.403	5.54705
416.611	3.5039
416.82	4.01567
417.029	4.63916
417.238	4.10542
417.447	4.07923
417.656	4.54335
417.865	4.3143
418.074	4.71751
418.283	5.08582
418.492	6.19257
418.7	5.90071
418.909	7.21963
419.118	6.02925
419.327	6.50767
419.536	6.25972
419.744	6.19605
419.953	7.52414
420.162	7.65456
420.371	6.65961
420.579	7.01722
420.788	8.03643
420.997	8.32428
421.205	8.21976
421.414	8.07503
421.623	8.35202
421.831	7.70468
422.04	8.27299
422.249	7.21178
422.457	7.90712
422.666	7.16294
422.874	8.196
423.083	8.3391
423.291	8.18632
423.5	8.12743
423.708	8.4569
423.917	8.92088
424.125	8.29815
424.334	8.11598
424.542	9.92459
424.751	9.12481
424.959	8.72297
425.167	9.30734
425.376	8.94768
425.584	7.86669
425.793	7.99859
426.001	6.87756
426.209	7.40743
426.418	6.20056
426.626	5.80922
426.834	5.65546
427.042	5.77114
427.251	5.27284
427.459	6.01475
427.667	5.71319
