Data from WindowProjectSample3_Transmission__5__00005.txt Node

Date: Sun May 04 09:43:57 EDT 2025
User: jessi
Spectrometer: SR400872
Trigger mode: 0
Integration Time (sec): 5.000070E-1
Scans to average: 20
Electric dark correction enabled: true
Nonlinearity correction enabled: true
Boxcar width: 0
XAxis mode: Wavelengths
Number of Pixels in Spectrum: 3648
>>>>>Begin Spectral Data<<<<<
184.909	-5706.38715
185.132	10645.09544
185.355	-8476.92583
185.578	-54086.06977
185.801	4750.15161
186.024	-139916.0941
186.247	-714.08113
186.47	1291.25118
186.693	1298.16122
186.916	-709.24407
187.139	-2543390.05624
187.362	-3029.67618
187.585	7539.75528
187.808	1933.95137
188.031	-233.35725
188.254	4941.29073
188.476	-1863.18906
188.699	2428.25207
188.922	490.73134
189.145	-5938.81366
189.368	-4299.03979
189.591	1993.25004
189.813	-144191.37485
190.036	9170.08399
190.259	1482.9376
190.482	6064.33624
190.705	17207.72919
190.927	17274.4928
191.15	-4100.35491
191.373	1988.45442
191.595	1541.58151
191.818	17253.29898
192.041	774.43099
192.263	-7876.82576
192.486	-1795.35753
192.709	2809.60948
192.931	-3493.42027
193.154	13562.33125
193.377	2573.17731
193.599	27155.41269
193.822	2296.31077
194.044	1949.80577
194.267	1023.88425
194.489	-62.96664
194.712	3586.35822
194.934	33711.32778
195.157	-531.18221
195.379	11182.91529
195.602	1897.97316
195.824	4614.04869
196.047	6722.41501
196.269	14100.61832
196.492	-11826.84423
196.714	4013.25304
196.936	6965.5249
197.159	10731.56815
197.381	3977.52557
197.604	1525193.15635
197.826	1957.65234
198.048	2129.03277
198.271	9853.20519
198.493	1963.78207
198.715	2754.46576
198.938	8288.84925
199.16	3202.56914
199.382	9513.38218
199.604	10108.16313
199.827	1837.38814
200.049	2852.85278
200.271	19903.31286
200.493	1773.295
200.715	7514.17502
200.938	7851.68131
201.16	-3734.42342
201.382	30409.65734
201.604	4128.10047
201.826	8722.70686
202.048	4716.01466
202.27	1821.92859
202.492	5921.11005
202.715	20634.08483
202.937	3826.3943
203.159	1538.21317
203.381	2093.5803
203.603	2856.98156
203.825	-1479.70726
204.047	-23229.88544
204.269	3751.97245
204.491	7088.39092
204.713	-1666934.86635
204.935	2295.96749
205.156	3672.28003
205.378	1691.56097
205.6	37095.87902
205.822	4698.54279
206.044	3175.11538
206.266	6111.52477
206.488	1452.8858
206.71	9298.76127
206.932	1507.8544
207.153	30083.62555
207.375	15803.46742
207.597	12095.59393
207.819	40834.15076
208.041	-44437.22363
208.262	1131.26702
208.484	13832.3623
208.706	3792.47047
208.927	2091.44215
209.149	828.28476
209.371	3758.28719
209.593	918.70443
209.814	9133.68523
210.036	-441155.81816
210.258	1703.3294
210.479	2273.28708
210.701	3413.63218
210.922	-5502.65112
211.144	-3211.44867
211.366	5067.42898
211.587	2677.24504
211.809	5984.20417
212.03	-62702.08089
212.252	541.79492
212.473	930.61558
212.695	675.7274
212.916	1249.19786
213.138	624.7604
213.359	5021.7689
213.581	3094.73326
213.802	881.27635
214.024	7463.16394
214.245	-12770.90091
214.466	430.66645
214.688	3976.08919
214.909	10286.17462
215.131	4375.79764
215.352	2645.53789
215.573	11674.60206
215.795	2146.58652
216.016	1935.62079
216.237	-813156.39048
216.459	2051.26452
216.68	5985.21698
216.901	3240.26811
217.122	759.9423
217.344	3061.4211
217.565	7120.08899
217.786	3558.14564
218.007	844.24414
218.228	2545.30422
218.45	-16681.16321
218.671	48653.19803
218.892	19637.37012
219.113	1679.80225
219.334	4303.74832
219.555	-7822.74903
219.776	1912.94056
219.997	3973.81578
220.219	1139.88798
220.44	1691.97516
220.661	1483.36143
220.882	6133.26705
221.103	1408.14943
221.324	8176.01312
221.545	3215.17981
221.766	3072.307
221.987	1531.8332
222.208	933.65782
222.429	2353.81235
222.65	208.80007
222.87	819.12039
223.091	1738.94452
223.312	1084.68066
223.533	2096.79129
223.754	1621.31391
223.975	1779.74914
224.196	1026.01831
224.417	5162.48103
224.637	650.39867
224.858	100.6856
225.079	1177.11431
225.3	639.05284
225.521	2306.8149
225.741	617.04624
225.962	634.48933
226.183	152.82604
226.404	1022.57582
226.624	549.2504
226.845	637.77767
227.066	462.60431
227.286	303.22065
227.507	185.31931
227.728	155.82996
227.948	269.48417
228.169	95.70193
228.389	100.29145
228.61	61.10189
228.831	80.51072
229.051	8.38459
229.272	49.13534
229.492	72.4217
229.713	19.92748
229.933	53.95879
230.154	45.98504
230.374	76.34742
230.595	55.34204
230.815	34.0379
231.036	58.91716
231.256	-11.30652
231.477	95.19022
231.697	59.66536
231.917	62.44546
232.138	86.16063
232.358	155.74741
232.579	151.97471
232.799	28.73408
233.019	132.99047
233.24	159.27668
233.46	61.58968
233.68	93.26458
233.901	61.05745
234.121	45.49374
234.341	14.9361
234.561	-5.12177
234.782	34.56542
235.002	98.44429
235.222	-4.25185
235.442	91.28183
235.662	45.21522
235.883	86.6332
236.103	76.3816
236.323	55.49465
236.543	40.78783
236.763	60.39326
236.983	64.02578
237.203	62.70866
237.423	89.47162
237.643	127.68365
237.864	110.51263
238.084	32.13387
238.304	40.04769
238.524	66.56726
238.744	58.75106
238.964	99.31989
239.184	89.19591
239.404	95.93343
239.624	50.99092
239.843	82.56345
240.063	48.05795
240.283	31.22091
240.503	36.97909
240.723	35.81294
240.943	22.77869
241.163	28.21218
241.383	19.86061
241.603	10.81889
241.822	12.51986
242.042	9.25409
242.262	12.1081
242.482	13.50369
242.702	15.65876
242.921	4.98495
243.141	10.84148
243.361	9.62102
243.581	13.91022
243.8	12.26985
244.02	8.69385
244.24	14.82135
244.459	13.72363
244.679	28.37773
244.899	18.61307
245.118	20.90959
245.338	19.09463
245.558	20.91996
245.777	12.38033
245.997	14.44722
246.216	14.94944
246.436	8.80453
246.655	6.07085
246.875	4.71527
247.094	8.68861
247.314	3.64845
247.533	5.68487
247.753	6.31559
247.972	5.48334
248.192	1.82634
248.411	3.22094
248.631	5.74516
248.85	7.10895
249.07	6.7601
249.289	9.31683
249.508	6.91779
249.728	12.00551
249.947	11.3643
250.166	13.94123
250.386	7.99826
250.605	10.92869
250.824	17.46062
251.044	12.61209
251.263	35.77516
251.482	20.97798
251.701	16.96879
251.921	0.30419
252.14	5.56706
252.359	6.90251
252.578	14.68995
252.798	5.92476
253.017	13.42768
253.236	7.02786
253.455	8.74044
253.674	17.71911
253.893	9.12749
254.112	13.16827
254.331	17.81698
254.551	15.17791
254.77	7.95028
254.989	21.83514
255.208	16.67115
255.427	23.94131
255.646	20.52933
255.865	31.03007
256.084	14.74767
256.303	16.57331
256.522	20.59683
256.741	3.83139
256.96	5.15096
257.179	12.65755
257.397	16.25909
257.616	8.91343
257.835	9.91902
258.054	21.69914
258.273	15.76227
258.492	15.96015
258.711	9.39654
258.93	4.66302
259.148	6.51809
259.367	6.20385
259.586	8.00358
259.805	3.4943
260.023	7.04176
260.242	5.37458
260.461	4.26019
260.68	2.15401
260.898	6.4291
261.117	2.08921
261.336	1.42219
261.554	5.67574
261.773	5.55408
261.992	1.65317
262.21	5.72209
262.429	6.77459
262.648	11.04893
262.866	12.76324
263.085	9.40774
263.303	7.56871
263.522	13.67441
263.74	13.39815
263.959	23.03692
264.178	12.25494
264.396	10.14006
264.615	7.94979
264.833	17.36298
265.051	14.38401
265.27	16.15613
265.488	15.86499
265.707	9.32374
265.925	15.4696
266.144	7.69852
266.362	8.45268
266.58	8.47146
266.799	7.32183
267.017	9.05617
267.235	7.36815
267.454	4.97286
267.672	2.94982
267.89	6.83228
268.109	6.99417
268.327	7.08898
268.545	1.75908
268.763	6.38911
268.982	2.56857
269.2	7.4467
269.418	4.36366
269.636	3.76626
269.854	7.15812
270.073	5.11595
270.291	3.08424
270.509	3.12105
270.727	6.83176
270.945	10.52457
271.163	10.55649
271.381	2.80688
271.599	4.87117
271.817	7.67629
272.036	2.77312
272.254	4.7346
272.472	3.66156
272.69	3.8267
272.908	4.13836
273.126	6.21309
273.344	7.99203
273.562	2.75795
273.779	4.05645
273.997	6.62205
274.215	6.3903
274.433	4.79684
274.651	7.20493
274.869	6.94689
275.087	4.23348
275.305	6.41742
275.523	4.19712
275.74	4.81466
275.958	8.31684
276.176	11.89685
276.394	3.65041
276.612	5.16392
276.829	5.19921
277.047	4.56586
277.265	4.61482
277.483	5.7365
277.7	6.31456
277.918	5.24708
278.136	9.54397
278.353	4.62674
278.571	2.75563
278.789	7.03353
279.006	1.60508
279.224	3.92574
279.442	7.71546
279.659	5.67321
279.877	3.88682
280.094	8.34948
280.312	1.87934
280.529	5.4404
280.747	1.70375
280.964	4.26863
281.182	8.56253
281.399	4.35591
281.617	5.55741
281.834	3.84958
282.052	2.90616
282.269	5.10473
282.487	3.88496
282.704	3.53171
282.921	3.46754
283.139	5.13109
283.356	6.186
283.574	5.92798
283.791	2.91131
284.008	7.92807
284.226	4.76144
284.443	5.18838
284.66	6.28522
284.877	5.16818
285.095	3.06245
285.312	2.42307
285.529	1.48166
285.746	1.36193
285.964	3.20206
286.181	2.04948
286.398	3.02716
286.615	4.04564
286.832	4.13213
287.05	1.20404
287.267	2.91599
287.484	2.81616
287.701	4.25477
287.918	3.98223
288.135	4.24458
288.352	1.75098
288.569	2.48268
288.786	3.60546
289.003	2.91923
289.22	4.46686
289.437	2.52717
289.654	4.43846
289.871	4.46614
290.088	4.29138
290.305	3.33291
290.522	2.78752
290.739	3.1152
290.956	4.72219
291.173	5.49863
291.39	5.26819
291.607	3.59456
291.824	2.96025
292.04	1.98045
292.257	4.50748
292.474	4.9632
292.691	3.3723
292.908	1.65
293.125	2.53648
293.341	1.84238
293.558	7.74173
293.775	3.13308
293.992	3.19418
294.208	1.19341
294.425	2.24467
294.642	2.81165
294.858	4.29533
295.075	1.202
295.292	3.05822
295.508	3.72407
295.725	5.47176
295.942	2.83785
296.158	2.01541
296.375	3.19333
296.591	2.4222
296.808	2.48438
297.024	2.95078
297.241	3.32626
297.458	3.58246
297.674	0.43809
297.891	2.84997
298.107	2.37317
298.323	1.77597
298.54	4.24102
298.756	2.28766
298.973	1.05204
299.189	4.63716
299.406	1.95215
299.622	4.51693
299.838	4.53871
300.055	3.99685
300.271	0.98656
300.487	1.70786
300.704	1.86297
300.92	1.18327
301.136	5.88846
301.353	4.47215
301.569	3.04153
301.785	3.4485
302.001	4.06244
302.218	3.65586
302.434	3.67317
302.65	1.39262
302.866	2.46026
303.083	6.03151
303.299	5.88962
303.515	2.91732
303.731	3.27181
303.947	1.17656
304.163	2.3097
304.379	3.24847
304.595	3.60313
304.812	2.18584
305.028	2.08809
305.244	2.63102
305.46	4.1113
305.676	4.14149
305.892	5.04294
306.108	3.70725
306.324	2.67251
306.54	5.80988
306.756	3.83859
306.972	3.81254
307.187	2.70879
307.403	5.25811
307.619	2.50378
307.835	4.61059
308.051	4.95391
308.267	1.62049
308.483	4.52597
308.699	3.73186
308.914	3.20123
309.13	3.01853
309.346	1.12182
309.562	1.61923
309.778	1.06463
309.993	3.70403
310.209	2.77574
310.425	1.3291
310.641	2.57465
310.856	1.61685
311.072	1.51127
311.288	2.85067
311.503	3.15512
311.719	0.7926
311.935	0.58195
312.15	3.40381
312.366	3.01464
312.581	3.67644
312.797	3.04824
313.013	3.88871
313.228	2.14573
313.444	2.9892
313.659	2.0104
313.875	3.64791
314.09	2.79644
314.306	4.72889
314.521	4.1309
314.737	3.94376
314.952	3.20266
315.168	3.08626
315.383	3.61262
315.599	2.6093
315.814	2.38019
316.029	4.13783
316.245	1.38922
316.46	0.95076
316.675	4.78347
316.891	5.74951
317.106	7.19791
317.321	3.77051
317.537	3.87452
317.752	4.09306
317.967	4.232
318.183	2.01775
318.398	2.78138
318.613	4.50657
318.828	5.00432
319.043	4.39339
319.259	2.87619
319.474	3.51197
319.689	4.73775
319.904	0.8284
320.119	4.20378
320.334	3.52527
320.549	2.9819
320.765	4.7468
320.98	3.71536
321.195	4.22392
321.41	2.99223
321.625	4.37055
321.84	5.63244
322.055	5.45587
322.27	2.31684
322.485	2.0143
322.7	3.60505
322.915	4.63296
323.13	2.12426
323.345	5.2897
323.56	4.10794
323.775	4.09433
323.989	3.71221
324.204	3.45753
324.419	4.42341
324.634	1.57341
324.849	2.85376
325.064	6.3496
325.279	4.49242
325.493	3.8837
325.708	4.32256
325.923	2.12095
326.138	2.30245
326.352	5.3283
326.567	4.5072
326.782	2.65037
326.997	2.13298
327.211	4.2763
327.426	3.62631
327.641	2.88838
327.855	1.15245
328.07	3.93351
328.285	5.56796
328.499	2.90091
328.714	3.60732
328.928	4.34961
329.143	3.27879
329.358	4.82472
329.572	4.83765
329.787	5.23472
330.001	6.92991
330.216	1.67254
330.43	5.62762
330.645	5.47421
330.859	4.58402
331.074	2.38513
331.288	3.694
331.503	5.47366
331.717	1.81884
331.931	3.24238
332.146	3.56531
332.36	6.00843
332.575	4.09801
332.789	3.52591
333.003	3.27693
333.218	4.09775
333.432	2.495
333.646	4.39099
333.86	5.49723
334.075	5.70444
334.289	2.65002
334.503	1.93578
334.717	4.24117
334.932	3.83419
335.146	5.16308
335.36	2.97759
335.574	4.80426
335.788	4.25717
336.003	5.0939
336.217	4.72081
336.431	4.29198
336.645	2.77938
336.859	2.10338
337.073	3.18379
337.287	3.59319
337.501	2.03705
337.715	3.59709
337.929	4.06638
338.143	1.76819
338.357	3.03103
338.571	2.14067
338.785	4.05728
338.999	2.65655
339.213	2.73641
339.427	1.73213
339.641	5.06716
339.855	2.91343
340.069	2.62407
340.283	4.85504
340.497	5.67773
340.711	4.13739
340.924	3.18548
341.138	2.11226
341.352	1.63561
341.566	3.52751
341.78	1.39496
341.993	2.62991
342.207	2.10006
342.421	3.62542
342.635	3.16486
342.848	2.61803
343.062	0.51449
343.276	2.56243
343.49	6.0162
343.703	2.49163
343.917	4.50559
344.131	4.4316
344.344	2.39225
344.558	2.74281
344.771	1.93706
344.985	4.8293
345.199	5.35566
345.412	3.63293
345.626	3.84963
345.839	1.22185
346.053	1.94916
346.266	2.04741
346.48	4.19586
346.693	3.72988
346.907	3.93681
347.12	2.19131
347.334	3.65276
347.547	3.69644
347.76	3.06752
347.974	4.72505
348.187	3.82238
348.401	2.86247
348.614	2.5383
348.827	2.96578
349.041	3.97874
349.254	1.36457
349.467	2.98134
349.681	1.81112
349.894	2.38365
350.107	4.71807
350.32	5.46191
350.534	1.38895
350.747	2.93548
350.96	2.28379
351.173	2.40138
351.386	2.64942
351.6	2.7092
351.813	2.63997
352.026	3.31499
352.239	1.68167
352.452	2.87964
352.665	4.42191
352.878	2.8464
353.092	5.79552
353.305	4.13982
353.518	3.34953
353.731	2.05799
353.944	4.4349
354.157	2.59697
354.37	2.17459
354.583	1.83663
354.796	1.30924
355.009	4.52706
355.222	3.21332
355.435	3.21344
355.647	4.35247
355.86	2.10594
356.073	3.083
356.286	2.54014
356.499	3.98549
356.712	3.65055
356.925	3.66059
357.138	4.16711
357.35	1.81052
357.563	2.58891
357.776	3.1362
357.989	2.82169
358.201	3.66163
358.414	3.49094
358.627	4.43234
358.84	2.68689
359.052	1.70688
359.265	1.86373
359.478	4.09878
359.69	0.24975
359.903	3.80306
360.116	4.02735
360.328	1.10957
360.541	3.75088
360.753	1.93366
360.966	2.35396
361.179	2.49444
361.391	2.31165
361.604	1.78505
361.816	2.29492
362.029	2.09446
362.241	1.69995
362.454	2.26951
362.666	1.765
362.879	3.06334
363.091	2.58193
363.304	2.07147
363.516	2.66952
363.728	1.50466
363.941	3.51874
364.153	2.54355
364.366	0.58634
364.578	1.68792
364.79	3.40351
365.003	2.97048
365.215	2.57374
365.427	3.27049
365.639	4.25548
365.852	3.0433
366.064	4.82087
366.276	2.40221
366.488	3.38402
366.701	2.49449
366.913	2.76417
367.125	2.18952
367.337	2.27844
367.549	2.38486
367.762	2.87057
367.974	2.8398
368.186	2.24509
368.398	4.01419
368.61	3.61667
368.822	3.67988
369.034	2.91007
369.246	3.87588
369.458	5.82559
369.67	1.84329
369.882	4.99865
370.094	0.80743
370.306	4.78482
370.518	2.48267
370.73	2.40257
370.942	2.20081
371.154	2.71247
371.366	2.37229
371.578	3.48924
371.79	2.18801
372.002	4.16494
372.214	5.01884
372.425	3.1003
372.637	4.51789
372.849	3.51115
373.061	0.79005
373.273	3.51706
373.484	3.49855
373.696	4.07184
373.908	0.6065
374.12	4.15074
374.331	3.66996
374.543	2.17377
374.755	1.88982
374.967	3.11311
375.178	3.99594
375.39	2.78607
375.602	3.12007
375.813	1.59782
376.025	1.80409
376.236	3.06073
376.448	3.20687
376.66	2.56438
376.871	2.52955
377.083	3.91601
377.294	4.37342
377.506	2.35875
377.717	4.42123
377.929	3.25002
378.14	2.17457
378.352	3.58172
378.563	3.48481
378.775	4.46435
378.986	2.14362
379.197	3.27246
379.409	2.44438
379.62	3.85521
379.832	3.29552
380.043	2.80275
380.254	3.16271
380.466	1.86401
380.677	6.00554
380.888	5.47603
381.1	5.68051
381.311	5.82849
381.522	3.09931
381.733	6.332
381.945	2.79007
382.156	3.15194
382.367	2.64551
382.578	6.17262
382.789	6.17869
383.001	2.64002
383.212	4.65375
383.423	4.91827
383.634	4.41735
383.845	3.73097
384.056	2.75213
384.267	3.27956
384.478	2.92132
384.69	1.97805
384.901	3.6906
385.112	3.40437
385.323	4.85982
385.534	3.57464
385.745	3.44558
385.956	3.54385
386.167	2.12687
386.378	3.75415
386.588	2.12192
386.799	2.42939
387.01	1.58269
387.221	4.04817
387.432	2.99395
387.643	5.29756
387.854	2.87661
388.065	2.8625
388.275	2.92202
388.486	2.776
388.697	3.1038
388.908	2.94375
389.119	4.37501
389.329	5.12587
389.54	3.32576
389.751	3.67471
389.962	4.52081
390.172	3.42481
390.383	2.77376
390.594	2.41539
390.804	2.42791
391.015	2.68801
391.226	3.26235
391.436	3.7443
391.647	3.6196
391.858	3.77312
392.068	1.4791
392.279	2.15837
392.489	3.36626
392.7	4.15997
392.91	2.1401
393.121	2.49392
393.331	3.63049
393.542	4.44911
393.752	3.57242
393.963	3.38855
394.173	3.32936
394.384	3.96864
394.594	3.21032
394.804	2.00759
395.015	3.29083
395.225	3.82144
395.436	2.20669
395.646	3.82659
395.856	2.68424
396.067	1.92734
396.277	4.306
396.487	3.71586
396.697	3.44371
396.908	4.23187
397.118	3.90274
397.328	3.57493
397.538	4.32508
397.749	2.64578
397.959	4.36187
398.169	4.03699
398.379	2.02398
398.589	3.95293
398.8	3.35138
399.01	3.28676
399.22	3.06518
399.43	5.79539
399.64	3.10947
399.85	3.98154
400.06	3.31661
400.27	2.63482
400.48	3.48568
400.69	4.821
400.9	2.90207
401.11	2.61108
401.32	4.31394
401.53	2.82489
401.74	5.04714
401.95	4.11729
402.16	2.70037
402.37	3.82509
402.58	2.90049
402.79	4.0778
403	4.18277
403.209	2.79006
403.419	4.21218
403.629	2.90322
403.839	4.17822
404.049	4.29092
404.258	2.68142
404.468	2.50886
404.678	3.94511
404.888	4.11683
405.097	2.63013
405.307	3.46741
405.517	3.93602
405.727	3.74253
405.936	2.95835
406.146	3.70612
406.356	4.74652
406.565	3.38466
406.775	2.92556
406.984	2.94917
407.194	5.22205
407.404	3.53343
407.613	3.89785
407.823	4.30707
408.032	4.73718
408.242	4.73102
408.451	3.06933
408.661	3.36164
408.87	5.31049
409.08	3.11438
409.289	3.77852
409.499	3.80595
409.708	3.61947
409.918	1.55679
410.127	3.50024
410.336	4.99628
410.546	4.15865
410.755	3.07302
410.964	3.16033
411.174	2.82396
411.383	4.0467
411.592	4.12256
411.802	2.61957
412.011	4.4677
412.22	3.63195
412.429	5.18965
412.639	4.99816
412.848	4.70235
413.057	5.20848
413.266	4.84246
413.475	3.51949
413.685	4.49202
413.894	4.50291
414.103	4.79289
414.312	4.34547
414.521	3.65112
414.73	3.68711
414.939	5.59492
415.148	4.13277
415.357	3.88539
415.566	3.30393
415.776	3.26523
415.985	3.13776
416.194	4.40325
416.403	5.20166
416.611	2.42353
416.82	3.02846
417.029	3.68745
417.238	2.90686
417.447	2.69752
417.656	3.07409
417.865	2.80275
418.074	3.08638
418.283	3.37212
418.492	4.10045
418.7	3.94622
418.909	4.69199
419.118	3.52486
419.327	3.71848
419.536	3.5414
419.744	2.93437
419.953	4.16442
420.162	4.07443
420.371	2.97145
420.579	3.01726
420.788	4.11079
420.997	4.1537
421.205	4.11628
421.414	3.79518
421.623	3.78452
421.831	3.34452
422.04	4.22302
422.249	3.10731
422.457	3.80144
422.666	3.18157
422.874	4.19424
423.083	4.17388
423.291	4.12509
423.5	3.83207
423.708	3.99734
423.917	4.50794
424.125	3.92994
424.334	3.58448
424.542	5.57416
424.751	4.67374
424.959	4.42261
425.167	4.80284
425.376	4.57236
425.584	3.78408
425.793	4.1524
426.001	3.2333
426.209	4.47935
426.418	3.345
426.626	3.53054
426.834	3.27833
