Data from WindowProjectSample3_Transmission__63__00063.txt Node

Date: Sun May 04 11:44:00 EDT 2025
User: jessi
Spectrometer: SR400872
Trigger mode: 0
Integration Time (sec): 5.000050E-1
Scans to average: 20
Electric dark correction enabled: true
Nonlinearity correction enabled: true
Boxcar width: 0
XAxis mode: Wavelengths
Number of Pixels in Spectrum: 3648
>>>>>Begin Spectral Data<<<<<
184.909	-1418.502
185.132	-1275.49852
185.355	-1511.06373
185.578	-1517.20559
185.801	1153.3795
186.024	-1283.13009
186.247	-23754.41815
186.47	-2154.1543
186.693	-4795.79674
186.916	-646.3925
187.139	-958.24076
187.362	-1261.42346
187.585	-1100.06331
187.808	-1263.71717
188.031	668.47308
188.254	-1150.89059
188.476	-916.98358
188.699	-1093.34728
188.922	323.63293
189.145	-1041.95496
189.368	7040.35069
189.591	4034.2287
189.813	-4383.66634
190.036	-1460.40514
190.259	-7757.99364
190.482	-3634.77314
190.705	-2870.12188
190.927	-1886.98534
191.15	-1335.34628
191.373	-3659.72744
191.595	31716.2864
191.818	-3114.8458
192.041	-1218.617
192.263	-1622.74044
192.486	-988.24994
192.709	-1940.19903
192.931	-4906.52188
193.154	-1383.52562
193.377	-1631.49271
193.599	1264.85407
193.822	9267.46051
194.044	-10380.02413
194.267	-3880.16923
194.489	-8.30896
194.712	-1868.40322
194.934	-2628.47413
195.157	-553.96728
195.379	-5316.30826
195.602	-1603.64313
195.824	-2449.5781
196.047	2731.99943
196.269	-1317.66202
196.492	-1410.72818
196.714	-982.6765
196.936	-2110.52301
197.159	-4043.82213
197.381	-1227.86785
197.604	-8065.96605
197.826	-2333.97156
198.048	-2350.04479
198.271	-1552.8539
198.493	-2287.9219
198.715	-3248.98418
198.938	-8979.29357
199.16	-4892.52319
199.382	-1503.2624
199.604	-1649.6657
199.827	-3811.66425
200.049	-20044.81091
200.271	-1173.57484
200.493	-4385.81995
200.715	-1081.12647
200.938	-927.30614
201.16	-962.61079
201.382	-3023.92259
201.604	-3711.66877
201.826	-1249.93217
202.048	-1726.66041
202.27	-1136.85046
202.492	-1574.03853
202.715	-1738.21457
202.937	-4261.29038
203.159	-4830.70839
203.381	6343.7562
203.603	-1447.84086
203.825	5846.87317
204.047	-2822.86948
204.269	3728.58078
204.491	-2442.68765
204.713	-1545.63682
204.935	-1036.84634
205.156	-4297.41362
205.378	-2848.03101
205.6	-1532.69977
205.822	-1649.86851
206.044	1284.66402
206.266	-19850.46738
206.488	-1420.73982
206.71	-3093.30826
206.932	25725.10899
207.153	-1412.87717
207.375	-2789.8047
207.597	-1325.79835
207.819	-1525.3728
208.041	-1324.00475
208.262	-1514.09452
208.484	-2042.18166
208.706	-9944.14023
208.927	-1981.87365
209.149	-10453.07848
209.371	-1356.98503
209.593	1324.08048
209.814	-2492.07511
210.036	536.88317
210.258	-1345.61777
210.479	-3016.88136
210.701	-6353.1658
210.922	-2679.64838
211.144	4133.81246
211.366	-2160.15989
211.587	1692.76731
211.809	-2373.51757
212.03	177696.35008
212.252	543.71551
212.473	-38537.27081
212.695	3397.27992
212.916	-2964.75755
213.138	878.62292
213.359	-1238.06048
213.581	-8785.34109
213.802	-1297.7458
214.024	-5902.07426
214.245	3405.33922
214.466	597.8453
214.688	-2263.22577
214.909	-1890.55438
215.131	-3402.32467
215.352	17667.20448
215.573	-1614.03671
215.795	-4544.98637
216.016	-1849.35751
216.237	1235.44583
216.459	10447.40073
216.68	-1615.00048
216.901	-3744.41802
217.122	18417.0255
217.344	-1796.96509
217.565	-1921.54133
217.786	-2344.96572
218.007	4854.01207
218.228	6578.06567
218.45	-2970.06045
218.671	21963.6326
218.892	-3427.53847
219.113	-7467.65865
219.334	-54.92441
219.555	-14816.8313
219.776	-2334.18228
219.997	-2406.14285
220.219	-2629.67235
220.44	7924.53792
220.661	8759.78578
220.882	-5192.5898
221.103	2473.50375
221.324	7352.15319
221.545	-9577.8552
221.766	-2412.80616
221.987	1128.71284
222.208	1767.04715
222.429	-1611.20965
222.65	246.60298
222.87	811.99878
223.091	3686.04303
223.312	577.79301
223.533	6055.73855
223.754	-4878.19599
223.975	1790.10933
224.196	1190.47035
224.417	6585.41767
224.637	719.95499
224.858	67.74496
225.079	781.51391
225.3	512.61478
225.521	-2145.43685
225.741	619.1791
225.962	626.31859
226.183	128.00677
226.404	1337.89029
226.624	488.3596
226.845	693.24211
227.066	482.56769
227.286	273.04849
227.507	123.512
227.728	105.50741
227.948	204.35007
228.169	63.18527
228.389	72.06469
228.61	44.0866
228.831	56.47992
229.051	5.08519
229.272	34.16082
229.492	48.28071
229.713	14.40454
229.933	34.49641
230.154	29.66937
230.374	49.2434
230.595	36.75245
230.815	23.13817
231.036	36.08965
231.256	-5.14449
231.477	64.39803
231.697	38.20422
231.917	41.56849
232.138	56.35816
232.358	115.69278
232.579	95.49804
232.799	16.62405
233.019	80.5068
233.24	100.99394
233.46	39.55514
233.68	50.03494
233.901	39.40228
234.121	25.20505
234.341	9.7385
234.561	-4.54465
234.782	18.71649
235.002	60.14241
235.222	0.79582
235.442	52.00212
235.662	26.8937
235.883	53.02589
236.103	42.58824
236.323	31.68333
236.543	23.13478
236.763	35.31916
236.983	37.40738
237.203	35.0548
237.423	51.04955
237.643	75.85477
237.864	63.0126
238.084	18.68362
238.304	22.85062
238.524	38.45505
238.744	33.43905
238.964	56.19448
239.184	47.00143
239.404	54.51565
239.624	28.86303
239.843	46.80658
240.063	28.69459
240.283	19.40818
240.503	21.02621
240.723	21.00115
240.943	14.10758
241.163	17.7069
241.383	12.50916
241.603	6.89431
241.822	7.58533
242.042	5.86349
242.262	7.6839
242.482	7.8153
242.702	8.92287
242.921	3.10771
243.141	6.44317
243.361	6.03457
243.581	8.5211
243.8	7.09149
244.02	4.84926
244.24	8.86496
244.459	8.25211
244.679	16.06009
244.899	10.16931
245.118	12.02804
245.338	10.97767
245.558	12.17496
245.777	7.50288
245.997	8.58302
246.216	9.04717
246.436	5.30918
246.655	3.89981
246.875	3.03012
247.094	5.65038
247.314	2.10091
247.533	3.48251
247.753	3.85754
247.972	3.25282
248.192	1.2522
248.411	2.05976
248.631	3.22037
248.85	4.12942
249.07	4.05651
249.289	5.5568
249.508	4.07776
249.728	6.65221
249.947	6.75186
250.166	8.57361
250.386	4.34125
250.605	6.17792
250.824	10.43266
251.044	7.23726
251.263	19.3572
251.482	11.55193
251.701	9.60124
251.921	0.37965
252.14	3.42721
252.359	4.15278
252.578	8.84238
252.798	3.48204
253.017	7.72541
253.236	3.79795
253.455	5.38089
253.674	10.3041
253.893	4.55359
254.112	7.57389
254.331	10.38452
254.551	8.58548
254.77	4.83381
254.989	11.68546
255.208	8.58912
255.427	13.37878
255.646	11.51792
255.865	17.03285
256.084	8.41182
256.303	9.9625
256.522	11.21674
256.741	2.94025
256.96	3.53711
257.179	7.59003
257.397	9.18424
257.616	5.1656
257.835	5.24913
258.054	12.97194
258.273	9.1846
258.492	9.11373
258.711	5.79373
258.93	2.8245
259.148	4.02302
259.367	3.83987
259.586	4.82092
259.805	2.26807
260.023	4.21919
260.242	3.09555
260.461	2.39509
260.68	1.30096
260.898	3.71416
261.117	1.35104
261.336	1.01138
261.554	3.22593
261.773	3.38346
261.992	0.95032
262.21	3.03549
262.429	3.65656
262.648	6.15473
262.866	7.0049
263.085	5.62045
263.303	4.47858
263.522	7.4679
263.74	7.3631
263.959	12.7218
264.178	6.8054
264.396	5.52649
264.615	4.17035
264.833	9.74459
265.051	8.10527
265.27	9.38458
265.488	9.18938
265.707	5.73242
265.925	8.99317
266.144	4.44903
266.362	4.97669
266.58	5.02269
266.799	4.42156
267.017	5.21756
267.235	4.60562
267.454	3.23642
267.672	1.70654
267.89	3.87587
268.109	4.1
268.327	4.10695
268.545	0.97418
268.763	3.69633
268.982	1.62772
269.2	4.26482
269.418	2.9486
269.636	2.37766
269.854	4.06848
270.073	3.01872
270.291	1.97886
270.509	1.76821
270.727	3.92472
270.945	6.22943
271.163	6.13526
271.381	1.60106
271.599	2.79794
271.817	4.38756
272.036	1.70745
272.254	3.12208
272.472	2.16797
272.69	2.28065
272.908	2.34184
273.126	3.44999
273.344	4.72193
273.562	1.6981
273.779	2.44633
273.997	3.76631
274.215	3.69839
274.433	2.67018
274.651	4.039
274.869	3.85834
275.087	2.50333
275.305	3.7319
275.523	2.37322
275.74	2.63843
275.958	4.84122
276.176	6.79927
276.394	2.29599
276.612	2.91677
276.829	2.89531
277.047	2.69043
277.265	2.62287
277.483	3.13437
277.7	3.51083
277.918	3.08812
278.136	5.4953
278.353	2.7506
278.571	1.776
278.789	4.05299
279.006	1.20886
279.224	2.58286
279.442	4.27619
279.659	3.23502
279.877	2.11483
280.094	4.59339
280.312	1.19675
280.529	3.16777
280.747	1.22574
280.964	2.58004
281.182	4.78842
281.399	2.6017
281.617	3.16825
281.834	2.13771
282.052	1.76644
282.269	2.95094
282.487	2.36888
282.704	2.09099
282.921	1.84469
283.139	2.85739
283.356	3.72347
283.574	3.54304
283.791	1.72376
284.008	4.494
284.226	2.71516
284.443	3.05078
284.66	3.69713
284.877	3.18716
285.095	2.07459
285.312	1.56452
285.529	0.94883
285.746	0.87235
285.964	1.88733
286.181	1.33726
286.398	1.78058
286.615	2.46069
286.832	2.36036
287.05	0.75482
287.267	1.74371
287.484	1.78183
287.701	2.35407
287.918	2.29482
288.135	2.38723
288.352	1.0677
288.569	1.32136
288.786	2.3657
289.003	1.77618
289.22	2.73283
289.437	1.5563
289.654	2.47137
289.871	2.5217
290.088	2.54752
290.305	2.04357
290.522	1.78385
290.739	1.90881
290.956	2.64347
291.173	3.16796
291.39	3.00846
291.607	2.11779
291.824	1.78046
292.04	1.31322
292.257	2.66116
292.474	2.89919
292.691	2.01449
292.908	1.07511
293.125	1.63539
293.341	1.15994
293.558	4.27192
293.775	2.06005
293.992	2.20783
294.208	1.05588
294.425	1.5394
294.642	1.98022
294.858	2.90012
295.075	1.01297
295.292	2.07475
295.508	2.59521
295.725	3.60482
295.942	2.22041
296.158	2.05019
296.375	2.75317
296.591	2.33988
296.808	2.51529
297.024	3.00495
297.241	3.19825
297.458	3.50247
297.674	1.87795
297.891	3.22291
298.107	3.22644
298.323	2.78566
298.54	4.29132
298.756	3.21552
298.973	2.64415
299.189	4.79032
299.406	3.58353
299.622	4.83825
299.838	5.1373
300.055	4.69698
300.271	3.45173
300.487	3.7013
300.704	4.01771
300.92	3.65719
301.136	6.40177
301.353	5.46356
301.569	4.87554
301.785	5.08817
302.001	5.50587
302.218	5.27642
302.434	5.70108
302.65	4.29502
302.866	4.86842
303.083	7.13584
303.299	7.20364
303.515	5.49946
303.731	6.02649
303.947	4.58682
304.163	5.3752
304.379	5.81235
304.595	6.06779
304.812	5.31588
305.028	5.30852
305.244	5.55955
305.46	6.35386
305.676	6.66461
305.892	7.12344
306.108	6.65978
306.324	5.94359
306.54	7.43097
306.756	6.42377
306.972	6.35985
307.187	6.32806
307.403	7.10875
307.619	5.77352
307.835	7.03256
308.051	7.23655
308.267	5.58938
308.483	7.44147
308.699	6.78222
308.914	6.51221
309.13	6.6321
309.346	5.55016
309.562	5.91799
309.778	5.69602
309.993	7.04782
310.209	6.99331
310.425	5.91467
310.641	6.87604
310.856	6.34171
311.072	6.22832
311.288	7.01701
311.503	7.31265
311.719	5.92704
311.935	6.09897
312.15	7.58274
312.366	7.42131
312.581	7.63407
312.797	7.31607
313.013	7.77787
313.228	6.71715
313.444	6.92487
313.659	6.45516
313.875	7.22652
314.09	6.87429
314.306	8.01208
314.521	7.55762
314.737	7.63951
314.952	7.17821
315.168	7.30138
315.383	7.46123
315.599	6.83053
315.814	7.03887
316.029	7.82615
316.245	6.47552
316.46	5.70175
316.675	7.99349
316.891	8.52292
317.106	9.44114
317.321	7.31241
317.537	7.6327
317.752	7.83995
317.967	7.8385
318.183	6.63586
318.398	6.97246
318.613	7.92035
318.828	8.30721
319.043	7.75222
319.259	7.05481
319.474	7.27068
319.689	8.12283
319.904	5.88991
320.119	8.12506
320.334	7.3822
320.549	7.24089
320.765	8.04667
320.98	7.63795
321.195	7.68968
321.41	7.32318
321.625	7.86531
321.84	8.73992
322.055	8.52997
322.27	7.03464
322.485	6.2625
322.7	7.74481
322.915	8.05464
323.13	7.08889
323.345	8.71621
323.56	7.98279
323.775	8.0973
323.989	8.01495
324.204	7.76802
324.419	8.32001
324.634	6.75278
324.849	7.74308
325.064	9.20578
325.279	8.56633
325.493	7.94565
325.708	8.43894
325.923	7.18644
326.138	7.55946
326.352	8.96038
326.567	8.40747
326.782	7.50678
326.997	7.52896
327.211	8.26217
327.426	8.04445
327.641	7.7655
327.855	6.7133
328.07	8.31103
328.285	9.36346
328.499	7.56184
328.714	8.05083
328.928	8.13594
329.143	7.78629
329.358	8.80713
329.572	8.55305
329.787	8.98208
330.001	9.86972
330.216	6.69447
330.43	9.57375
330.645	8.83269
330.859	8.54133
331.074	6.98526
331.288	7.86947
331.503	9.33723
331.717	7.08918
331.931	7.84205
332.146	8.23343
332.36	9.60998
332.575	8.35575
332.789	7.94853
333.003	8.07638
333.218	8.36027
333.432	7.6252
333.646	8.74971
333.86	9.48472
334.075	9.4198
334.289	7.64232
334.503	6.90669
334.717	8.65852
334.932	8.29624
335.146	8.71043
335.36	7.58566
335.574	8.88131
335.788	8.71851
336.003	8.96562
336.217	9.00466
336.431	8.29869
336.645	7.67426
336.859	7.22254
337.073	7.96884
337.287	8.2217
337.501	7.05589
337.715	8.57532
337.929	8.49645
338.143	7.52109
338.357	8.18952
338.571	8.16446
338.785	9.23318
338.999	8.1067
339.213	8.18818
339.427	7.60819
339.641	9.47079
339.855	8.06621
340.069	7.75613
340.283	9.23183
340.497	9.45148
340.711	8.96887
340.924	8.51061
341.138	7.80169
341.352	7.45918
341.566	8.51145
341.78	7.3512
341.993	8.00202
342.207	7.9737
342.421	8.94255
342.635	8.35538
342.848	8.21484
343.062	6.75448
343.276	8.16006
343.49	9.90708
343.703	8.05968
343.917	9.23375
344.131	9.51652
344.344	7.99649
344.558	8.37303
344.771	7.70806
344.985	9.40268
345.199	10.02824
345.412	8.76188
345.626	9.11666
345.839	7.65541
346.053	8.05374
346.266	8.17439
346.48	9.12084
346.693	9.06616
346.907	9.03341
347.12	8.05011
347.334	8.67097
347.547	9.05062
347.76	8.59915
347.974	9.46145
348.187	8.79505
348.401	8.58382
348.614	7.90046
348.827	8.63281
349.041	8.90335
349.254	7.40943
349.467	8.51981
349.681	8.15346
349.894	8.00688
350.107	9.49998
350.32	10.25494
350.534	7.73424
350.747	8.64741
350.96	8.3452
351.173	8.33157
351.386	8.63911
351.6	8.31694
351.813	8.76147
352.026	8.65998
352.239	8.29504
352.452	8.5879
352.665	9.87086
352.878	8.64988
353.092	10.49151
353.305	9.52232
353.518	9.0828
353.731	8.21251
353.944	9.58306
354.157	8.67269
354.37	8.81234
354.583	8.26451
354.796	8.22142
355.009	9.78616
355.222	9.34945
355.435	9.16479
355.647	9.9983
355.86	8.78154
356.073	9.37393
356.286	8.94367
356.499	9.92876
356.712	9.72922
356.925	9.66962
357.138	10.06296
357.35	8.89204
357.563	9.13477
357.776	9.63372
357.989	9.68211
358.201	10.00051
358.414	9.9285
358.627	10.35549
358.84	9.46114
359.052	8.88948
359.265	9.07202
359.478	10.12969
359.69	7.98992
359.903	10.24437
360.116	10.25854
360.328	8.76419
360.541	10.17281
360.753	9.39254
360.966	9.54713
361.179	9.70006
361.391	9.81172
361.604	10.06357
361.816	10.54156
362.029	10.45229
362.241	10.09347
362.454	10.20335
362.666	9.67263
362.879	10.40542
363.091	9.88543
363.304	9.80881
363.516	9.90155
363.728	9.4244
363.941	10.31793
364.153	10.27942
364.366	8.81952
364.578	9.45703
364.79	10.23954
365.003	10.25107
365.215	9.80283
365.427	10.52286
365.639	10.78778
365.852	10.22546
366.064	11.10115
366.276	9.98878
366.488	10.33227
366.701	10.0887
366.913	10.00591
367.125	10.31806
367.337	9.94384
367.549	10.05581
367.762	10.19248
367.974	10.40288
368.186	10.23426
368.398	10.92505
368.61	10.63497
368.822	10.87677
369.034	10.12788
369.246	11.0186
369.458	12.04379
369.67	9.87096
369.882	11.52104
370.094	9.29557
370.306	11.24251
370.518	10.24636
370.73	10.28005
370.942	10.28131
371.154	10.59762
371.366	10.56745
371.578	11.1996
371.79	10.75676
372.002	11.518
372.214	12.23388
372.425	10.91784
372.637	12.09191
372.849	11.27054
373.061	9.76556
373.273	11.37408
373.484	11.27389
373.696	11.45557
373.908	9.63281
374.12	11.62543
374.331	11.44641
374.543	10.56353
374.755	10.43343
374.967	11.15493
375.178	11.82938
375.39	10.93396
375.602	11.36236
375.813	10.34023
376.025	10.76653
376.236	11.29678
376.448	11.47846
376.66	11.4187
376.871	11.41972
377.083	11.96161
377.294	12.50074
377.506	11.41065
377.717	12.47069
377.929	11.8792
378.14	11.50393
378.352	12.09331
378.563	12.23816
378.775	12.58175
378.986	11.38696
379.197	12.1569
379.409	11.42864
379.62	12.20783
379.832	11.93364
380.043	11.79428
380.254	12.13515
380.466	11.243
380.677	13.61539
380.888	13.29835
381.1	13.87562
381.311	13.8156
381.522	12.32765
381.733	14.0178
381.945	12.19994
382.156	12.12468
382.367	12.01201
382.578	13.89636
382.789	14.13327
383.001	11.88442
383.212	13.69677
383.423	13.51477
383.634	13.22401
383.845	13.00079
384.056	12.37323
384.267	12.66348
384.478	12.69883
384.69	12.16614
384.901	13.1447
385.112	13.02014
385.323	14.01829
385.534	13.09935
385.745	13.09439
385.956	13.34722
386.167	12.44451
386.378	13.40729
386.588	12.63406
386.799	12.57404
387.01	12.24266
387.221	13.71501
387.432	13.29999
387.643	14.26152
387.854	13.1069
388.065	13.09223
388.275	13.19912
388.486	12.95317
388.697	13.36598
388.908	13.0834
389.119	14.04066
389.329	14.31534
389.54	13.57352
389.751	13.72447
389.962	14.34196
390.172	13.61764
390.383	13.52105
390.594	13.09024
390.804	13.24381
391.015	13.45913
391.226	13.81678
391.436	14.25684
391.647	14.12768
391.858	14.23051
392.068	13.06804
392.279	13.48231
392.489	14.28518
392.7	14.61387
392.91	13.61686
393.121	13.66454
393.331	14.40782
393.542	14.82178
393.752	14.67931
393.963	14.40149
394.173	14.38671
394.384	14.67218
394.594	14.35332
394.804	13.72254
395.015	14.38967
395.225	14.86679
395.436	13.93794
395.646	14.71389
395.856	14.2286
396.067	13.65935
396.277	15.08688
396.487	14.75714
396.697	14.79618
396.908	15.01195
397.118	14.85472
397.328	14.67239
397.538	15.17723
397.749	14.26782
397.959	15.32089
398.169	14.97427
398.379	13.99477
398.589	15.04892
398.8	14.92033
399.01	15.01497
399.22	14.69187
399.43	16.0875
399.64	14.90764
399.85	15.16089
400.06	15.04061
400.27	14.61648
400.48	14.90165
400.69	15.65213
400.9	14.67541
401.11	14.44441
401.32	15.52179
401.53	14.76891
401.74	15.97863
401.95	15.30658
402.16	14.86303
402.37	15.52434
402.58	14.99325
402.79	15.46449
403	15.6824
403.209	14.84649
403.419	15.81376
403.629	15.02848
403.839	15.92608
404.049	15.90378
404.258	15.22649
404.468	15.09104
404.678	15.92149
404.888	16.08565
405.097	15.4376
405.307	15.53795
405.517	15.9907
405.727	15.85609
405.936	15.51917
406.146	15.89349
406.356	16.39317
406.565	15.70565
406.775	15.54962
406.984	15.55429
407.194	16.83473
407.404	15.73079
407.613	15.99529
407.823	16.16976
408.032	16.61059
408.242	16.34865
408.451	15.47604
408.661	15.84015
408.87	16.8304
409.08	15.48889
409.289	16.13916
409.499	15.99794
409.708	15.99859
409.918	14.91174
410.127	16.08247
410.336	16.89432
410.546	16.45732
410.755	15.91991
410.964	15.96649
411.174	15.79174
411.383	16.45872
411.592	16.4151
411.802	15.86588
412.011	16.64792
412.22	16.17173
412.429	17.0699
412.639	16.96652
412.848	16.92555
413.057	17.21855
413.266	16.85829
413.475	16.40811
413.685	16.7595
413.894	16.88076
414.103	16.91795
414.312	16.70517
414.521	16.25425
414.73	16.45507
414.939	17.34798
415.148	16.88299
415.357	16.64116
415.566	16.46016
415.776	16.51616
415.985	16.4676
416.194	17.05641
416.403	17.79192
416.611	16.22964
416.82	17.01412
417.029	17.6857
417.238	17.94531
417.447	18.23335
417.656	19.5351
417.865	19.91425
418.074	20.36657
418.283	22.12949
418.492	23.41546
418.7	23.19691
418.909	25.65132
419.118	24.59371
419.327	25.14813
419.536	25.35572
419.744	25.82066
419.953	27.60922
420.162	28.4488
420.371	28.25813
420.579	29.81825
420.788	30.8361
420.997	30.89849
421.205	32.04883
421.414	31.33234
421.623	31.66187
421.831	30.99263
422.04	31.40385
422.249	29.90826
422.457	29.93335
422.666	28.56171
422.874	29.69875
423.083	29.87118
423.291	30.04184
