Data from WindowProjectSample3_Transmission__61__00061.txt Node

Date: Sun May 04 11:38:16 EDT 2025
User: jessi
Spectrometer: SR400872
Trigger mode: 0
Integration Time (sec): 5.000050E-1
Scans to average: 20
Electric dark correction enabled: true
Nonlinearity correction enabled: true
Boxcar width: 0
XAxis mode: Wavelengths
Number of Pixels in Spectrum: 3648
>>>>>Begin Spectral Data<<<<<
184.909	-1396.20549
185.132	-1287.51721
185.355	-1566.48158
185.578	-1548.97357
185.801	1260.68507
186.024	-1293.3055
186.247	-24715.02209
186.47	-2431.08077
186.693	-5067.99334
186.916	-667.92562
187.139	-980.72816
187.362	-1290.54011
187.585	-1096.13193
187.808	-1158.79224
188.031	671.71779
188.254	-1212.36299
188.476	-900.95201
188.699	-1032.0387
188.922	313.18371
189.145	-1012.87487
189.368	7055.30024
189.591	3271.81575
189.813	-4492.79266
190.036	-1476.38887
190.259	-7761.27885
190.482	-3524.24662
190.705	-2800.31865
190.927	-1929.52056
191.15	-1324.61293
191.373	-3467.28465
191.595	31490.7846
191.818	-3133.41032
192.041	-1045.83766
192.263	-1548.60395
192.486	-1037.51894
192.709	-1900.67656
192.931	-4819.2337
193.154	-1334.86408
193.377	-1591.32116
193.599	1210.76677
193.822	8917.19753
194.044	-9902.25542
194.267	-3854.7739
194.489	-20.34296
194.712	-1877.8698
194.934	-2675.25874
195.157	-562.25912
195.379	-5262.3449
195.602	-1646.38806
195.824	-2426.06365
196.047	2658.83145
196.269	-1284.87209
196.492	-1373.21688
196.714	-930.0283
196.936	-2151.30395
197.159	-3892.40866
197.381	-1278.88994
197.604	-7422.16387
197.826	-2315.80791
198.048	-2240.54822
198.271	-1477.15067
198.493	-2396.44227
198.715	-3326.66559
198.938	-7685.04171
199.16	-4535.32764
199.382	-1515.589
199.604	-1530.76404
199.827	-3803.6904
200.049	-19142.44528
200.271	-1134.5986
200.493	-4503.30853
200.715	-1136.05198
200.938	-929.4123
201.16	-938.01845
201.382	-2848.20161
201.604	-3809.79941
201.826	-1196.64928
202.048	-1734.83071
202.27	-1124.30987
202.492	-1518.99927
202.715	-1788.35338
202.937	-4443.6138
203.159	-4880.52295
203.381	5961.39423
203.603	-1416.99872
203.825	5753.42455
204.047	-2682.2839
204.269	3735.14201
204.491	-2340.85585
204.713	-1504.96194
204.935	-1055.87574
205.156	-3993.99437
205.378	-2743.87265
205.6	-1548.20741
205.822	-1596.84859
206.044	1345.09158
206.266	-19192.88254
206.488	-1483.54665
206.71	-3004.73129
206.932	25480.50674
207.153	-1321.2181
207.375	-2802.15576
207.597	-1306.83259
207.819	-1558.19647
208.041	-1295.28112
208.262	-1553.10559
208.484	-1971.30838
208.706	-9571.2472
208.927	-1934.47886
209.149	-10049.49485
209.371	-1358.74379
209.593	1237.8813
209.814	-2542.74044
210.036	474.7911
210.258	-1320.1619
210.479	-2911.84775
210.701	-6207.81163
210.922	-2632.48452
211.144	4143.03713
211.366	-2056.57483
211.587	1738.10397
211.809	-2330.41324
212.03	171985.79901
212.252	452.4417
212.473	-36133.64296
212.695	3235.54987
212.916	-2975.9309
213.138	702.32045
213.359	-1206.20895
213.581	-9002.61109
213.802	-1334.79756
214.024	-5684.13726
214.245	3198.81085
214.466	468.57215
214.688	-2200.62614
214.909	-1794.09589
215.131	-3316.41975
215.352	17006.60356
215.573	-1622.83986
215.795	-4452.23163
216.016	-1919.30338
216.237	1247.29467
216.459	10403.58818
216.68	-1545.05069
216.901	-3709.78201
217.122	19381.73256
217.344	-1742.05991
217.565	-1872.09696
217.786	-2364.12238
218.007	4653.41098
218.228	5808.8893
218.45	-2968.90686
218.671	20243.29172
218.892	-3179.93063
219.113	-7067.76911
219.334	-54.93033
219.555	-14752.18084
219.776	-2206.39792
219.997	-2424.97528
220.219	-2668.89609
220.44	7736.82013
220.661	8935.76115
220.882	-4956.28219
221.103	2585.98432
221.324	7431.49024
221.545	-9640.09205
221.766	-2338.68528
221.987	1057.30293
222.208	1707.50137
222.429	-1565.51097
222.65	186.08651
222.87	787.8185
223.091	3451.95373
223.312	551.86129
223.533	6083.7625
223.754	-4944.92426
223.975	1717.09369
224.196	1158.69232
224.417	6361.68315
224.637	730.79558
224.858	73.40444
225.079	752.4529
225.3	477.52014
225.521	-2092.5133
225.741	598.72221
225.962	599.74887
226.183	115.87577
226.404	1323.99228
226.624	459.17002
226.845	692.75173
227.066	497.72101
227.286	265.55066
227.507	119.14667
227.728	106.24949
227.948	202.32703
228.169	61.51264
228.389	70.56493
228.61	42.42208
228.831	55.17124
229.051	5.09622
229.272	31.73858
229.492	47.25709
229.713	15.4233
229.933	33.6525
230.154	28.06296
230.374	47.72535
230.595	37.00637
230.815	23.19416
231.036	35.98648
231.256	-2.90244
231.477	63.053
231.697	36.03941
231.917	41.14326
232.138	55.19798
232.358	112.26759
232.579	91.13109
232.799	17.14166
233.019	83.14673
233.24	98.86195
233.46	36.3819
233.68	54.06505
233.901	33.94926
234.121	24.00239
234.341	9.853
234.561	-3.34678
234.782	16.96844
235.002	60.01608
235.222	0.30605
235.442	52.6882
235.662	27.60783
235.883	51.84036
236.103	40.76024
236.323	29.90496
236.543	23.12428
236.763	35.34613
236.983	35.55316
237.203	33.34236
237.423	49.52691
237.643	74.65885
237.864	62.45667
238.084	17.43332
238.304	21.79391
238.524	39.47465
238.744	32.81449
238.964	56.87835
239.184	48.04266
239.404	53.33752
239.624	28.49964
239.843	46.37631
240.063	28.6386
240.283	18.38081
240.503	21.76056
240.723	20.72954
240.943	13.13333
241.163	16.11405
241.383	12.36675
241.603	6.66257
241.822	7.67648
242.042	5.3753
242.262	7.12563
242.482	7.69314
242.702	8.99677
242.921	2.92053
243.141	6.01953
243.361	5.9164
243.581	8.08482
243.8	7.36166
244.02	4.60521
244.24	8.62626
244.459	7.6017
244.679	15.76289
244.899	10.01265
245.118	11.82415
245.338	10.91575
245.558	11.77712
245.777	7.19357
245.997	8.39455
246.216	8.80161
246.436	5.09211
246.655	3.7884
246.875	2.96705
247.094	5.62664
247.314	2.01787
247.533	3.57967
247.753	3.90278
247.972	3.22967
248.192	1.14076
248.411	2.04072
248.631	3.15683
248.85	4.06449
249.07	4.0711
249.289	5.66813
249.508	4.10425
249.728	6.68273
249.947	6.23369
250.166	8.12926
250.386	4.13523
250.605	6.36067
250.824	10.21569
251.044	6.98035
251.263	19.51197
251.482	12.18703
251.701	9.77063
251.921	0.36413
252.14	3.09774
252.359	3.57357
252.578	8.49353
252.798	3.3437
253.017	7.39918
253.236	3.98443
253.455	5.16291
253.674	10.07604
253.893	4.51559
254.112	7.28479
254.331	10.43198
254.551	7.99346
254.77	4.59607
254.989	11.10077
255.208	8.4638
255.427	13.03048
255.646	11.10653
255.865	17.51962
256.084	7.65546
256.303	9.68564
256.522	11.11834
256.741	3.0281
256.96	3.12379
257.179	7.14715
257.397	9.29303
257.616	4.766
257.835	5.31461
258.054	13.01527
258.273	9.14161
258.492	9.03543
258.711	5.66927
258.93	2.64545
259.148	3.85158
259.367	3.8186
259.586	4.68489
259.805	2.24027
260.023	4.13931
260.242	3.19444
260.461	2.49093
260.68	1.23483
260.898	3.67778
261.117	1.35372
261.336	0.94453
261.554	3.20887
261.773	3.34964
261.992	0.89825
262.21	3.1398
262.429	3.65425
262.648	5.88433
262.866	6.89426
263.085	4.88284
263.303	4.04424
263.522	7.73412
263.74	7.37066
263.959	12.59536
264.178	6.7406
264.396	5.64159
264.615	4.17952
264.833	9.46868
265.051	7.99062
265.27	9.44987
265.488	9.09691
265.707	5.56131
265.925	8.90845
266.144	4.51682
266.362	4.96281
266.58	5.08561
266.799	4.29783
267.017	5.18242
267.235	4.54418
267.454	3.25762
267.672	1.75966
267.89	3.77456
268.109	4.07184
268.327	3.92901
268.545	0.94063
268.763	3.65322
268.982	1.78933
269.2	4.10783
269.418	2.8852
269.636	2.30489
269.854	4.20582
270.073	2.81907
270.291	1.65556
270.509	1.62719
270.727	3.97411
270.945	6.07234
271.163	6.08207
271.381	1.5742
271.599	2.70501
271.817	4.22832
272.036	1.63486
272.254	2.99704
272.472	2.23774
272.69	2.1077
272.908	2.32269
273.126	3.52609
273.344	4.50578
273.562	1.60382
273.779	2.41437
273.997	3.84968
274.215	3.46757
274.433	2.62911
274.651	3.96301
274.869	3.94035
275.087	2.46569
275.305	3.70563
275.523	2.34522
275.74	2.70656
275.958	4.74113
276.176	6.67804
276.394	2.33507
276.612	2.85323
276.829	2.84284
277.047	2.56178
277.265	2.79441
277.483	3.11269
277.7	3.48659
277.918	2.85476
278.136	5.44111
278.353	2.53428
278.571	1.63672
278.789	4.18
279.006	1.10846
279.224	2.56678
279.442	4.43749
279.659	3.15813
279.877	1.97985
280.094	4.54104
280.312	1.19974
280.529	3.02127
280.747	1.21904
280.964	2.56657
281.182	4.46805
281.399	2.54751
281.617	3.10929
281.834	2.18072
282.052	1.68103
282.269	2.75813
282.487	2.1473
282.704	2.09056
282.921	1.92652
283.139	2.90597
283.356	3.7341
283.574	3.42117
283.791	1.67332
284.008	4.43074
284.226	2.64065
284.443	2.92243
284.66	3.69492
284.877	3.28312
285.095	1.96644
285.312	1.54304
285.529	0.94335
285.746	0.73906
285.964	1.87942
286.181	1.35737
286.398	1.77078
286.615	2.39515
286.832	2.38119
287.05	0.59521
287.267	1.67126
287.484	1.74745
287.701	2.35707
287.918	2.29083
288.135	2.38111
288.352	1.06787
288.569	1.39792
288.786	2.29816
289.003	1.67765
289.22	2.73544
289.437	1.57942
289.654	2.49539
289.871	2.54656
290.088	2.50328
290.305	2.03338
290.522	1.7054
290.739	1.75564
290.956	2.62282
291.173	3.0786
291.39	2.97359
291.607	2.0347
291.824	1.70622
292.04	1.36577
292.257	2.55694
292.474	2.89421
292.691	1.91034
292.908	1.06242
293.125	1.60178
293.341	1.09397
293.558	4.30967
293.775	1.96415
293.992	2.2249
294.208	0.89332
294.425	1.56489
294.642	1.83022
294.858	2.76849
295.075	0.90672
295.292	2.01601
295.508	2.48428
295.725	3.40843
295.942	2.13801
296.158	1.83238
296.375	2.50849
296.591	2.17685
296.808	2.31511
297.024	2.74818
297.241	2.95985
297.458	3.0975
297.674	1.53172
297.891	2.83396
298.107	2.72623
298.323	2.3166
298.54	3.83518
298.756	2.8211
298.973	2.17394
299.189	4.19425
299.406	3.06078
299.622	4.27002
299.838	4.36786
300.055	4.07294
300.271	2.62164
300.487	2.93373
300.704	3.24496
300.92	2.87582
301.136	5.59841
301.353	4.69095
301.569	4.05151
301.785	4.18282
302.001	4.58845
302.218	4.42958
302.434	4.78144
302.65	3.43594
302.866	3.92149
303.083	6.16484
303.299	6.25775
303.515	4.53887
303.731	4.99735
303.947	3.64316
304.163	4.39105
304.379	4.81335
304.595	5.01682
304.812	4.25089
305.028	4.26419
305.244	4.49335
305.46	5.40116
305.676	5.52574
305.892	6.044
306.108	5.68692
306.324	4.83604
306.54	6.52668
306.756	5.48852
306.972	5.20972
307.187	5.2281
307.403	6.07638
307.619	4.69061
307.835	6.00916
308.051	6.15421
308.267	4.5202
308.483	6.32218
308.699	5.62445
308.914	5.42771
309.13	5.39318
309.346	4.50087
309.562	4.86357
309.778	4.58495
309.993	5.9831
310.209	5.86188
310.425	4.79222
310.641	5.68973
310.856	5.16254
311.072	5.1273
311.288	5.7246
311.503	6.18106
311.719	4.67451
311.935	4.84812
312.15	6.36727
312.366	6.28939
312.581	6.41991
312.797	6.17252
313.013	6.65523
313.228	5.62604
313.444	5.89159
313.659	5.26694
313.875	6.15946
314.09	5.81619
314.306	6.90565
314.521	6.54605
314.737	6.48552
314.952	6.17873
315.168	6.21615
315.383	6.23435
315.599	5.70575
315.814	5.93522
316.029	6.74768
316.245	5.40057
316.46	4.61344
316.675	6.88742
316.891	7.37802
317.106	8.26966
317.321	6.42501
317.537	6.60599
317.752	6.87466
317.967	6.8886
318.183	5.59241
318.398	5.87423
318.613	6.82709
318.828	7.22095
319.043	6.66081
319.259	5.92883
319.474	6.32788
319.689	7.16196
319.904	4.82901
320.119	7.23303
320.334	6.33826
320.549	6.11038
320.765	7.18952
320.98	6.58393
321.195	6.67281
321.41	6.30329
321.625	6.82693
321.84	7.6361
322.055	7.5687
322.27	5.61938
322.485	5.30098
322.7	6.76896
322.915	6.97159
323.13	6.05868
323.345	7.69805
323.56	7.18209
323.775	7.07768
323.989	6.99903
324.204	6.66005
324.419	7.24045
324.634	5.70052
324.849	6.63654
325.064	8.17778
325.279	7.451
325.493	7.06566
325.708	7.3232
325.923	6.08611
326.138	6.56699
326.352	7.892
326.567	7.33446
326.782	6.4363
326.997	6.43644
327.211	7.30982
327.426	7.05545
327.641	6.62016
327.855	5.68037
328.07	7.30492
328.285	8.33344
328.499	6.56725
328.714	6.88957
328.928	7.09508
329.143	6.78069
329.358	7.72639
329.572	7.53417
329.787	7.94545
330.001	9.00614
330.216	5.66422
330.43	8.50795
330.645	7.99996
330.859	7.56368
331.074	6.05808
331.288	6.77209
331.503	8.3366
331.717	6.06151
331.931	6.85325
332.146	7.28125
332.36	8.61378
332.575	7.30064
332.789	6.97167
333.003	7.09307
333.218	7.30211
333.432	6.60613
333.646	7.77477
333.86	8.35769
334.075	8.46165
334.289	6.62583
334.503	5.97297
334.717	7.79386
334.932	7.22921
335.146	7.74479
335.36	6.62723
335.574	7.82925
335.788	7.66626
336.003	8.04952
336.217	7.97693
336.431	7.27968
336.645	6.6728
336.859	6.24452
337.073	7.05376
337.287	7.2383
337.501	6.16593
337.715	7.58668
337.929	7.60641
338.143	6.54316
338.357	7.09509
338.571	6.91117
338.785	8.13221
338.999	7.02504
339.213	7.06023
339.427	6.57295
339.641	8.34322
339.855	7.12796
340.069	6.69391
340.283	8.16979
340.497	8.4402
340.711	7.95624
340.924	7.48702
341.138	6.72643
341.352	6.43495
341.566	7.50941
341.78	6.34676
341.993	6.9918
342.207	6.8955
342.421	7.74661
342.635	7.39307
342.848	7.18436
343.062	5.71688
343.276	7.13204
343.49	8.96466
343.703	7.08777
343.917	8.26903
344.131	8.4279
344.344	7.00145
344.558	7.24728
344.771	6.73633
344.985	8.41074
345.199	8.93494
345.412	7.93003
345.626	8.0851
345.839	6.54716
346.053	6.93638
346.266	7.10075
346.48	8.06756
346.693	8.04677
346.907	7.93077
347.12	7.02552
347.334	7.71253
347.547	7.97989
347.76	7.55061
347.974	8.3163
348.187	7.75381
348.401	7.45656
348.614	6.99564
348.827	7.59429
349.041	7.80994
349.254	6.47641
349.467	7.38607
349.681	7.13072
349.894	7.14073
350.107	8.51672
350.32	9.19949
350.534	6.71926
350.747	7.50172
350.96	7.1157
351.173	7.25078
351.386	7.53552
351.6	7.32968
351.813	7.47347
352.026	7.65266
352.239	7.11466
352.452	7.40155
352.665	8.60151
352.878	7.51861
353.092	9.33941
353.305	8.31047
353.518	7.84721
353.731	7.14063
353.944	8.49295
354.157	7.48633
354.37	7.46609
354.583	7.07955
354.796	7.03024
355.009	8.60065
355.222	8.16003
355.435	7.96488
355.647	8.75805
355.86	7.49824
356.073	8.08068
356.286	7.69924
356.499	8.68987
356.712	8.52331
356.925	8.37518
357.138	8.71636
357.35	7.61887
357.563	7.88741
357.776	8.31045
357.989	8.34279
358.201	8.60615
358.414	8.49351
358.627	8.96126
358.84	8.14556
359.052	7.49963
359.265	7.72229
359.478	8.83003
359.69	6.65878
359.903	8.94142
360.116	8.89554
360.328	7.46742
360.541	8.8485
360.753	7.96523
360.966	8.16837
361.179	8.24153
361.391	8.26447
361.604	8.50953
361.816	8.86893
362.029	8.93157
362.241	8.51742
362.454	8.70605
362.666	8.22329
362.879	8.84792
363.091	8.46092
363.304	8.26084
363.516	8.38631
363.728	7.78164
363.941	8.85132
364.153	8.54689
364.366	7.22291
364.578	7.84109
364.79	8.67928
365.003	8.66573
365.215	8.12277
365.427	8.89677
365.639	9.13278
365.852	8.57658
366.064	9.32038
366.276	8.26477
366.488	8.62344
366.701	8.33717
366.913	8.35017
367.125	8.50964
367.337	8.33664
367.549	8.29516
367.762	8.4064
367.974	8.33477
368.186	8.35631
368.398	9.1697
368.61	8.72647
368.822	8.95106
369.034	8.25969
369.246	9.0086
369.458	10.13774
369.67	8.03324
369.882	9.45438
370.094	7.35824
370.306	9.34379
370.518	8.37419
370.73	8.27264
370.942	8.2254
371.154	8.53212
371.366	8.49733
371.578	9.06216
371.79	8.59146
372.002	9.27825
372.214	10.01214
372.425	8.68209
372.637	9.78242
372.849	8.99006
373.061	7.43672
373.273	9.03487
373.484	9.00644
373.696	9.18098
373.908	7.44538
374.12	9.2664
374.331	9.03806
374.543	8.22545
374.755	8.14889
374.967	8.64735
375.178	9.42468
375.39	8.48103
375.602	8.7749
375.813	7.81056
376.025	8.14482
376.236	8.81311
376.448	8.97498
376.66	8.78945
376.871	8.69886
377.083	9.22704
377.294	9.88075
377.506	8.68096
377.717	9.8592
377.929	9.09181
378.14	8.72695
378.352	9.33756
378.563	9.36617
378.775	9.78669
378.986	8.43747
379.197	9.18069
379.409	8.50995
379.62	9.27631
379.832	9.02876
380.043	8.76636
380.254	9.17223
380.466	8.15999
380.677	10.58675
380.888	10.25072
381.1	10.74683
381.311	10.65576
381.522	9.14414
381.733	10.75247
381.945	9.08681
382.156	8.81637
382.367	8.65921
382.578	10.5859
382.789	10.82507
383.001	8.54093
383.212	10.20164
383.423	10.15516
383.634	9.713
383.845	9.51325
384.056	8.8756
384.267	9.18483
384.478	9.17533
384.69	8.58074
384.901	9.4944
385.112	9.32212
385.323	10.40353
385.534	9.35648
385.745	9.5301
385.956	9.55711
386.167	8.81471
386.378	9.61335
386.588	8.86062
386.799	8.78532
387.01	8.37733
387.221	9.78636
387.432	9.36248
387.643	10.33726
387.854	9.04514
388.065	9.08811
388.275	9.2252
388.486	9.0274
388.697	9.41112
388.908	9.10893
389.119	9.97016
389.329	10.14355
389.54	9.46314
389.751	9.5071
389.962	10.15936
390.172	9.4707
390.383	9.27904
390.594	9.02846
390.804	9.01589
391.015	9.06084
391.226	9.57614
391.436	9.85243
391.647	9.66067
391.858	9.89493
392.068	8.60239
392.279	8.93802
392.489	9.72994
392.7	10.03726
392.91	9.13048
393.121	9.13385
393.331	9.77309
393.542	10.18189
393.752	9.79816
393.963	9.7212
394.173	9.67543
394.384	9.98561
394.594	9.60841
394.804	8.96334
395.015	9.66564
395.225	10.06895
395.436	9.0901
395.646	9.80492
395.856	9.40599
396.067	8.83028
396.277	10.21448
396.487	9.83034
396.697	9.80681
396.908	9.95783
397.118	9.96492
397.328	9.62647
397.538	10.26113
397.749	9.27585
397.959	10.18307
398.169	9.88491
398.379	8.84772
398.589	9.97291
398.8	9.76575
399.01	9.84382
399.22	9.39421
399.43	10.79023
399.64	9.6505
399.85	10.00112
400.06	9.76349
400.27	9.37485
400.48	9.6121
400.69	10.3374
400.9	9.4614
401.11	9.16822
401.32	10.16201
401.53	9.41004
401.74	10.54087
401.95	9.9191
402.16	9.46947
402.37	10.07259
402.58	9.39923
402.79	10.0092
403	10.2086
403.209	9.3392
403.419	10.29091
403.629	9.39989
403.839	10.30644
404.049	10.36898
404.258	9.61313
404.468	9.44999
404.678	10.32529
404.888	10.5361
405.097	9.80189
405.307	9.81926
405.517	10.32741
405.727	10.18911
405.936	9.90825
406.146	10.1405
406.356	10.70775
406.565	10.01393
406.775	9.79092
406.984	9.75338
407.194	11.00787
407.404	10.05618
407.613	10.31045
407.823	10.34727
408.032	10.73346
408.242	10.47863
408.451	9.73319
408.661	9.89144
408.87	10.98589
409.08	9.62815
409.289	10.19383
409.499	10.17639
409.708	10.02159
409.918	9.05752
410.127	10.16853
410.336	10.88853
410.546	10.53702
410.755	9.9467
410.964	9.86257
411.174	9.66751
411.383	10.52004
411.592	10.35341
411.802	9.71542
412.011	10.6535
412.22	10.31203
412.429	11.02769
412.639	10.99377
412.848	10.73536
413.057	11.13641
413.266	10.81864
413.475	10.2626
413.685	10.66097
413.894	10.82754
414.103	10.81949
414.312	10.65824
414.521	10.11451
414.73	10.56128
414.939	11.23827
415.148	10.68292
415.357	10.50358
415.566	10.27667
415.776	10.19116
415.985	10.29252
416.194	10.91202
416.403	11.59057
416.611	9.99153
416.82	10.54672
417.029	11.17083
417.238	11.24387
417.447	11.41949
417.656	12.26856
417.865	12.51899
418.074	12.82906
418.283	13.95683
418.492	15.06675
418.7	14.77039
418.909	16.68638
419.118	15.56983
419.327	16.0578
419.536	16.14316
419.744	16.22694
419.953	17.84065
420.162	18.21627
420.371	17.73231
420.579	18.64444
420.788	19.66361
420.997	19.77215
421.205	20.38191
421.414	19.87741
421.623	20.0461
421.831	19.45402
422.04	20.1225
422.249	18.93314
422.457	19.12091
422.666	18.08676
422.874	19.1964
423.083	19.25623
423.291	19.2374
423.5	19.44754
423.708	20.0729
423.917	20.61744
424.125	20.05668
424.334	19.93686
424.542	21.95909
424.751	21.24831
424.959	20.66385
425.167	20.39465
425.376	20.27687
