Data from WindowProjectSample_Transmission__49__00049.txt Node

Date: Mon May 05 18:07:35 EDT 2025
User: jessi
Spectrometer: SR400872
Trigger mode: 0
Integration Time (sec): 5.000010E-1
Scans to average: 20
Electric dark correction enabled: true
Nonlinearity correction enabled: true
Boxcar width: 0
XAxis mode: Wavelengths
Number of Pixels in Spectrum: 3648
>>>>>Begin Spectral Data<<<<<
184.909	20847.35669
185.132	-5004.27515
185.355	-3071.24915
185.578	-18682.2937
185.801	1494.46098
186.024	10503.5437
186.247	-1713.01947
186.47	1119.92163
186.693	320.36316
186.916	331.49852
187.139	-3777.32722
187.362	3488.70214
187.585	4204.0088
187.808	3564.64594
188.031	-21.54315
188.254	-47080.10438
188.476	-702.17874
188.699	6465.44613
188.922	683.05495
189.145	-15522.71395
189.368	-678.0831
189.591	-1422.11593
189.813	3423.17443
190.036	-51004.96902
190.259	-967.5428
190.482	-4832.88547
190.705	7213.18543
190.927	-2474.96493
191.15	13266.47793
191.373	3199.66467
191.595	-8822.92174
191.818	-4175.0079
192.041	-5763.29758
192.263	-3332.86531
192.486	-992.71017
192.709	-3955.63448
192.931	7941.35656
193.154	-28187.75377
193.377	-2874.81685
193.599	-2751.42817
193.822	-9431.98318
194.044	-2020.49307
194.267	1164.75758
194.489	248.95123
194.712	-43855.05931
194.934	-32133.06926
195.157	1262.87979
195.379	1596.13813
195.602	-6718.76876
195.824	-1282.29724
196.047	-9174.12881
196.269	2759.54783
196.492	-6626.82095
196.714	28741.29721
196.936	-8490.5119
197.159	-1103.74852
197.381	1106.91135
197.604	441.07263
197.826	12131.84711
198.048	-10169.7568
198.271	-2880.08575
198.493	7730.25889
198.715	2315.69839
198.938	-521.70388
199.16	6790.63352
199.382	-102126.16472
199.604	2671.04923
199.827	-1082.02796
200.049	-2974.51666
200.271	15091.01817
200.493	1237.5811
200.715	-37026.18738
200.938	-6118.53202
201.16	-4359.62781
201.382	20573.46336
201.604	2355.81254
201.826	2331.77477
202.048	-1885.37583
202.27	-1892.83229
202.492	-36039.68295
202.715	2988.93117
202.937	-4507.82247
203.159	-6471.54405
203.381	1549.03459
203.603	6855.72985
203.825	6992.5995
204.047	2241.23494
204.269	-2796.23873
204.491	2215.46134
204.713	5811.62347
204.935	-484740.53028
205.156	1172.71613
205.378	-2947.4834
205.6	1647.94079
205.822	154211.16602
206.044	-1163.11769
206.266	1591.43032
206.488	4625.12661
206.71	-5234.53044
206.932	1119.1902
207.153	12090.03562
207.375	-7263.07684
207.597	-39019.58066
207.819	-2765.71058
208.041	2443.95006
208.262	449.88155
208.484	659.88569
208.706	-769.49543
208.927	-824.11784
209.149	561.63107
209.371	-2854.73559
209.593	-278.82439
209.814	-816.85284
210.036	598.85018
210.258	-634.25711
210.479	1921.48208
210.701	1881.89433
210.922	3314.08486
211.144	-3824.43584
211.366	2069.64038
211.587	7422.40732
211.809	-8253.2116
212.03	2413.31618
212.252	476.77957
212.473	2093.43477
212.695	-6567.62175
212.916	2943.06012
213.138	-672.09527
213.359	3686.30622
213.581	5287.9541
213.802	-824.29036
214.024	1087.27877
214.245	2081.90092
214.466	2770.47126
214.688	-3083.50963
214.909	-1201.22114
215.131	-1762.73673
215.352	-3095.35649
215.573	14803.08982
215.795	5142.56218
216.016	5293.73385
216.237	854.49687
216.459	3513.03932
216.68	1952.16342
216.901	4776.0718
217.122	-3315.15203
217.344	-11986.99584
217.565	3478.19813
217.786	9189.32829
218.007	16482.12108
218.228	-658.63795
218.45	5659.84964
218.671	830.39625
218.892	37756.80137
219.113	1625.6304
219.334	-377.02886
219.555	10691.41115
219.776	3103.02518
219.997	23167.75664
220.219	2911.28509
220.44	-11061.65631
220.661	480.05938
220.882	1532.97279
221.103	-1166.20635
221.324	2347.11387
221.545	2222.25055
221.766	-9089.72275
221.987	874.73491
222.208	1744.70596
222.429	4383.00581
222.65	228.36809
222.87	18778.48306
223.091	720.57586
223.312	614.55221
223.533	1399.77853
223.754	1500.964
223.975	1357.44255
224.196	1943.48456
224.417	1274.83891
224.637	582.19102
224.858	89.80064
225.079	1068.39346
225.3	674.01718
225.521	3777.27369
225.741	500.32
225.962	510.0226
226.183	139.67006
226.404	677.50393
226.624	415.67958
226.845	604.35176
227.066	407.25515
227.286	259.51515
227.507	130.85324
227.728	117.2836
227.948	236.70823
228.169	67.90527
228.389	85.22536
228.61	45.84637
228.831	65.02773
229.051	2.01867
229.272	37.04919
229.492	57.98142
229.713	14.59313
229.933	36.7753
230.154	32.26729
230.374	54.1332
230.595	39.01848
230.815	22.94133
231.036	37.25681
231.256	-8.65282
231.477	71.10577
231.697	38.42114
231.917	36.40183
232.138	56.09026
232.358	102.80587
232.579	101.7497
232.799	18.40509
233.019	100.59232
233.24	114.40805
233.46	38.80032
233.68	61.70453
233.901	45.13794
234.121	24.36564
234.341	9.71291
234.561	-3.36921
234.782	21.08522
235.002	66.33363
235.222	-6.09644
235.442	66.00995
235.662	32.83222
235.883	62.61091
236.103	49.85156
236.323	38.3246
236.543	29.84727
236.763	40.45336
236.983	42.26795
237.203	40.70851
237.423	60.44622
237.643	89.64069
237.864	73.5194
238.084	17.24801
238.304	28.9178
238.524	43.72452
238.744	38.12722
238.964	74.88568
239.184	62.11953
239.404	63.69236
239.624	34.48251
239.843	59.3155
240.063	36.23118
240.283	22.5336
240.503	24.94409
240.723	24.97273
240.943	14.4192
241.163	20.28598
241.383	14.15818
241.603	7.87998
241.822	9.42745
242.042	6.79217
242.262	8.30861
242.482	9.95666
242.702	11.19915
242.921	3.3277
243.141	6.4911
243.361	6.05384
243.581	9.36856
243.8	7.54298
244.02	5.53902
244.24	9.57353
244.459	9.59179
244.679	17.9033
244.899	11.37451
245.118	12.5048
245.338	12.397
245.558	13.73892
245.777	8.06674
245.997	10.72417
246.216	10.62461
246.436	6.05106
246.655	4.83312
246.875	3.4876
247.094	6.25862
247.314	2.00422
247.533	3.69352
247.753	4.36603
247.972	3.38474
248.192	1.00336
248.411	1.9177
248.631	3.55578
248.85	4.37626
249.07	4.01913
249.289	5.77059
249.508	4.93085
249.728	7.46365
249.947	7.37122
250.166	8.77357
250.386	3.95381
250.605	7.14629
250.824	10.76206
251.044	8.02946
251.263	28.69097
251.482	15.04969
251.701	12.04634
251.921	0.24558
252.14	3.44246
252.359	4.02747
252.578	9.98799
252.798	3.51607
253.017	8.9528
253.236	4.19416
253.455	5.96066
253.674	10.14065
253.893	4.8024
254.112	7.44436
254.331	11.48153
254.551	9.32889
254.77	3.66819
254.989	13.60791
255.208	9.35857
255.427	15.18405
255.646	10.9483
255.865	21.90465
256.084	8.69599
256.303	10.62605
256.522	14.04456
256.741	3.33785
256.96	2.82737
257.179	7.97511
257.397	10.67703
257.616	5.9769
257.835	5.94769
258.054	15.55667
258.273	10.58449
258.492	11.37462
258.711	6.96718
258.93	3.18117
259.148	4.87271
259.367	4.55622
259.586	5.68923
259.805	2.23123
260.023	5.29092
260.242	4.0095
260.461	2.8175
260.68	1.21816
260.898	4.45987
261.117	1.3799
261.336	1.01557
261.554	3.39371
261.773	3.43816
261.992	0.69322
262.21	3.24674
262.429	3.45636
262.648	7.4243
262.866	8.20265
263.085	5.76725
263.303	4.75679
263.522	8.66072
263.74	9.06486
263.959	15.78282
264.178	7.2442
264.396	6.39958
264.615	4.70732
264.833	10.75668
265.051	8.98939
265.27	10.84275
265.488	11.21187
265.707	6.42556
265.925	10.63952
266.144	4.86844
266.362	5.91334
266.58	5.27617
266.799	5.32328
267.017	6.03366
267.235	5.31818
267.454	3.21342
267.672	1.82199
267.89	4.04858
268.109	4.4177
268.327	4.45184
268.545	1.00708
268.763	4.07872
268.982	1.16944
269.2	4.44758
269.418	3.10295
269.636	2.1157
269.854	4.51895
270.073	3.1807
270.291	2.09689
270.509	1.72147
270.727	4.33186
270.945	7.35944
271.163	7.2523
271.381	1.43539
271.599	3.21205
271.817	5.40541
272.036	1.78703
272.254	3.13828
272.472	2.36728
272.69	2.61515
272.908	2.55522
273.126	4.51754
273.344	5.35785
273.562	1.94422
273.779	2.75298
273.997	3.81286
274.215	4.01864
274.433	2.90644
274.651	4.4038
274.869	4.72062
275.087	2.80082
275.305	3.8094
275.523	2.54606
275.74	3.13136
275.958	5.65487
276.176	8.17207
276.394	2.63813
276.612	3.26076
276.829	3.15578
277.047	2.62542
277.265	2.80514
277.483	3.666
277.7	4.2219
277.918	3.2903
278.136	6.37757
278.353	2.8455
278.571	1.7757
278.789	4.43652
279.006	1.15461
279.224	3.00218
279.442	5.36581
279.659	3.66538
279.877	2.53432
280.094	5.8637
280.312	1.20227
280.529	3.46817
280.747	0.88186
280.964	2.70296
281.182	6.13157
281.399	2.69632
281.617	3.89306
281.834	2.61921
282.052	1.98537
282.269	3.29285
282.487	2.46677
282.704	2.15231
282.921	2.09821
283.139	3.31095
283.356	4.07201
283.574	3.83224
283.791	1.8897
284.008	5.68424
284.226	2.99679
284.443	3.26075
284.66	4.14059
284.877	3.49092
285.095	2.12169
285.312	1.64515
285.529	0.95685
285.746	0.75946
285.964	2.05768
286.181	1.47244
286.398	1.89201
286.615	2.65271
286.832	2.54496
287.05	0.52801
287.267	1.84084
287.484	1.87489
287.701	2.56678
287.918	2.76872
288.135	2.64726
288.352	1.26971
288.569	1.4079
288.786	2.31194
289.003	1.97494
289.22	3.00163
289.437	1.55855
289.654	2.92765
289.871	3.03833
290.088	2.94767
290.305	2.33083
290.522	1.82651
290.739	2.09903
290.956	3.07338
291.173	3.5587
291.39	3.48678
291.607	2.42532
291.824	1.75938
292.04	1.25287
292.257	2.95359
292.474	3.17901
292.691	2.11127
292.908	0.90097
293.125	1.59092
293.341	1.21123
293.558	5.07613
293.775	1.89971
293.992	2.08721
294.208	0.86464
294.425	1.36038
294.642	1.97172
294.858	2.91761
295.075	0.6909
295.292	2.08321
295.508	2.3693
295.725	4.04531
295.942	1.84968
296.158	1.42882
296.375	2.16593
296.591	1.68012
296.808	1.89367
297.024	2.15439
297.241	2.49091
297.458	2.69272
297.674	0.47092
297.891	2.11261
298.107	1.82829
298.323	1.3607
298.54	3.48156
298.756	1.71416
298.973	1.01081
299.189	3.67046
299.406	1.77332
299.622	3.26836
299.838	3.25996
300.055	3.16598
300.271	1.1569
300.487	1.62663
300.704	2.05189
300.92	1.39724
301.136	5.03057
301.353	3.24183
301.569	2.52871
301.785	2.91047
302.001	3.46297
302.218	2.98109
302.434	3.17378
302.65	1.58415
302.866	2.40126
303.083	4.85097
303.299	4.92005
303.515	3.01456
303.731	3.1601
303.947	1.67181
304.163	2.27129
304.379	3.07234
304.595	3.29611
304.812	2.25602
305.028	2.23019
305.244	2.77744
305.46	3.67091
305.676	3.72899
305.892	4.23755
306.108	3.52095
306.324	2.64746
306.54	4.86639
306.756	3.58542
306.972	3.46788
307.187	3.04696
307.403	4.45255
307.619	2.61313
307.835	4.18772
308.051	4.57459
308.267	2.19114
308.483	4.25053
308.699	3.61315
308.914	3.22641
309.13	3.14112
309.346	1.9848
309.562	2.34051
309.778	2.04423
309.993	3.73755
310.209	3.42644
310.425	2.21144
310.641	3.16094
310.856	2.49453
311.072	2.38879
311.288	3.21351
311.503	3.52675
311.719	1.82832
311.935	1.77267
312.15	3.81892
312.366	3.43899
312.581	3.83786
312.797	3.47592
313.013	4.18577
313.228	2.74589
313.444	3.15194
313.659	2.78531
313.875	3.81661
314.09	3.16773
314.306	4.59779
314.521	4.07012
314.737	4.11632
314.952	3.29267
315.168	3.38089
315.383	3.81168
315.599	3.11509
315.814	3.24753
316.029	4.13
316.245	2.40691
316.46	1.91245
316.675	4.53199
316.891	5.11343
317.106	6.15742
317.321	3.71833
317.537	4.11076
317.752	4.22388
317.967	4.37149
318.183	2.65469
318.398	3.04435
318.613	4.26617
318.828	4.85633
319.043	4.16451
319.259	3.39817
319.474	3.85779
319.689	4.84378
319.904	2.16435
320.119	4.58823
320.334	3.9282
320.549	3.45415
320.765	4.62285
320.98	3.82835
321.195	4.1908
321.41	3.59317
321.625	4.24452
321.84	5.33946
322.055	5.22402
322.27	3.17991
322.485	2.67099
322.7	4.08457
322.915	4.59229
323.13	3.31397
323.345	5.24709
323.56	4.84621
323.775	4.47368
323.989	4.22531
324.204	4.05195
324.419	4.93448
324.634	2.84706
324.849	3.8386
325.064	7.00929
325.279	4.76295
325.493	4.42439
325.708	4.70424
325.923	3.24895
326.138	3.67659
326.352	5.47873
326.567	4.93967
326.782	3.5736
326.997	3.65881
327.211	4.62512
327.426	4.25334
327.641	3.75813
327.855	2.65756
328.07	4.45358
328.285	5.75814
328.499	3.61449
328.714	4.3095
328.928	4.60868
329.143	4.09035
329.358	5.06853
329.572	5.0263
329.787	5.40554
330.001	6.50009
330.216	2.98128
330.43	6.03449
330.645	5.52498
330.859	5.10427
331.074	3.49046
331.288	4.31687
331.503	5.70733
331.717	3.32949
331.931	4.5818
332.146	4.60121
332.36	6.01656
332.575	4.70462
332.789	4.5923
333.003	4.65157
333.218	4.94758
333.432	3.95978
333.646	5.28259
333.86	6.10733
334.075	5.95353
334.289	4.06595
334.503	3.4222
334.717	4.92974
334.932	4.91039
335.146	5.40163
335.36	4.0528
335.574	5.19399
335.788	5.04017
336.003	5.53993
336.217	5.19105
336.431	5.08965
336.645	4.22213
336.859	3.6548
337.073	4.60214
337.287	5.02583
337.501	3.57624
337.715	5.25048
337.929	5.61101
338.143	3.79391
338.357	4.63035
338.571	4.3872
338.785	5.48671
338.999	4.42656
339.213	4.52449
339.427	3.76066
339.641	6.18367
339.855	4.54912
340.069	4.31866
340.283	5.82416
340.497	6.53481
340.711	5.47428
340.924	5.07986
341.138	4.14699
341.352	4.0339
341.566	5.13014
341.78	3.78136
341.993	4.7203
342.207	4.51026
342.421	5.34029
342.635	4.95386
342.848	4.86724
343.062	3.20026
343.276	4.71412
343.49	6.81699
343.703	4.511
343.917	6.21703
344.131	6.29534
344.344	4.61301
344.558	4.90065
344.771	4.22478
344.985	6.63946
345.199	6.70452
345.412	5.67336
345.626	5.67519
345.839	4.10628
346.053	4.49524
346.266	4.59277
346.48	5.91926
346.693	5.84909
346.907	5.57507
347.12	4.57114
347.334	5.64391
347.547	5.65651
347.76	5.06394
347.974	6.30991
348.187	5.55576
348.401	5.15314
348.614	4.68618
348.827	5.19609
349.041	5.80185
349.254	4.09272
349.467	5.17147
349.681	4.74038
349.894	4.8777
350.107	6.52373
350.32	7.24907
350.534	4.5661
350.747	5.33308
350.96	4.80135
351.173	5.16211
351.386	5.37993
351.6	5.16158
351.813	5.25687
352.026	5.33274
352.239	4.74343
352.452	5.34108
352.665	6.62624
352.878	5.6887
353.092	7.33448
353.305	6.43961
353.518	5.92805
353.731	4.97107
353.944	6.76921
354.157	5.50123
354.37	5.42107
354.583	4.86776
354.796	4.82524
355.009	6.65139
355.222	6.21663
355.435	6.11702
355.647	6.83212
355.86	5.46656
356.073	6.20088
356.286	5.67722
356.499	6.75919
356.712	6.62066
356.925	6.666
357.138	6.69681
357.35	5.62327
357.563	5.90211
357.776	6.38215
357.989	6.16151
358.201	6.70573
358.414	6.54656
358.627	7.48588
358.84	6.13926
359.052	5.36877
359.265	5.77685
359.478	7.09865
359.69	4.52175
359.903	7.09814
360.116	7.17735
360.328	5.35772
360.541	7.08728
360.753	6.01897
360.966	6.31298
361.179	6.52944
361.391	6.29344
361.604	6.40924
361.816	6.49496
362.029	6.40749
362.241	6.14804
362.454	6.5745
362.666	6.04806
362.879	7.11758
363.091	6.45724
363.304	6.24775
363.516	6.41923
363.728	5.96514
363.941	6.91391
364.153	6.69905
364.366	5.14113
364.578	5.8242
364.79	6.7055
365.003	6.7044
365.215	6.07322
365.427	6.99534
365.639	7.15547
365.852	6.56055
366.064	8.03146
366.276	6.46757
366.488	6.76831
366.701	6.40008
366.913	6.38471
367.125	6.54483
367.337	5.94212
367.549	6.21913
367.762	6.58597
367.974	6.66024
368.186	6.36166
368.398	7.26929
368.61	6.80336
368.822	7.03309
369.034	6.22559
369.246	7.1863
369.458	8.74835
369.67	6.0314
369.882	7.80224
370.094	5.22322
370.306	7.71601
370.518	6.41369
370.73	6.29295
370.942	6.22971
371.154	6.71105
371.366	6.51195
371.578	7.03588
371.79	6.52409
372.002	7.62523
372.214	8.35933
372.425	6.6797
372.637	7.9726
372.849	7.03
373.061	5.41962
373.273	6.95557
373.484	7.00096
373.696	7.26308
373.908	5.31677
374.12	7.53467
374.331	7.13121
374.543	6.26871
374.755	6.16507
374.967	6.73024
375.178	7.51032
375.39	6.43474
375.602	7.09158
375.813	5.76105
376.025	6.38133
376.236	7.09945
376.448	7.3454
376.66	6.80621
376.871	7.00394
377.083	7.89478
377.294	8.44897
377.506	6.77475
377.717	8.10864
377.929	7.32494
378.14	6.87503
378.352	7.38605
378.563	7.516
378.775	7.98105
378.986	6.39749
379.197	7.08113
379.409	6.50074
379.62	7.40535
379.832	7.3823
380.043	6.81698
380.254	7.26467
380.466	6.35453
380.677	9.13457
380.888	8.44073
381.1	9.00037
381.311	9.05514
381.522	7.47751
381.733	9.06253
381.945	7.18882
382.156	7.05716
382.367	6.77231
382.578	9.13153
382.789	9.16436
383.001	6.84831
383.212	8.55554
383.423	8.32493
383.634	8.09492
383.845	7.83609
384.056	7.13064
384.267	7.33042
384.478	7.49408
384.69	6.64649
384.901	7.68933
385.112	7.52937
385.323	8.69739
385.534	7.66757
385.745	7.74066
385.956	7.63273
386.167	6.95683
386.378	7.81082
386.588	7.05936
386.799	6.95283
387.01	6.46735
387.221	8.05787
387.432	7.58303
387.643	8.62801
387.854	7.3813
388.065	7.27689
388.275	7.36991
388.486	7.07734
388.697	7.45889
388.908	7.09161
389.119	8.34603
389.329	8.45997
389.54	7.6028
389.751	7.74557
389.962	8.444
390.172	7.65595
390.383	7.44252
390.594	7.19897
390.804	7.34591
391.015	7.28934
391.226	7.95801
391.436	8.08179
391.647	8.01511
391.858	8.14673
392.068	6.70992
392.279	7.19434
392.489	8.02183
392.7	8.43335
392.91	7.33745
393.121	7.27802
393.331	8.12665
393.542	8.58928
393.752	8.11257
393.963	8.08778
394.173	7.97633
394.384	8.20295
394.594	7.9823
394.804	7.15924
395.015	7.97696
395.225	8.28076
395.436	7.31246
395.646	8.12541
395.856	7.56584
396.067	6.84085
396.277	8.45698
396.487	8.12838
396.697	8.12311
396.908	8.12024
397.118	8.33219
397.328	7.90974
397.538	8.48671
397.749	7.21156
397.959	8.32789
398.169	8.14787
398.379	7.11781
398.589	8.20952
398.8	7.9741
399.01	7.91262
399.22	7.66719
399.43	9.37549
399.64	7.82306
399.85	8.24133
400.06	7.93371
400.27	7.31339
400.48	7.74618
400.69	8.78404
400.9	7.56698
401.11	7.13348
401.32	8.28692
401.53	7.54387
401.74	8.90798
401.95	8.26208
402.16	7.52555
402.37	8.09595
402.58	7.65763
402.79	8.26064
403	8.65292
403.209	7.59631
403.419	8.84919
403.629	7.52588
403.839	8.77525
404.049	8.6555
404.258	7.83418
404.468	7.69546
404.678	8.44135
404.888	8.9109
405.097	7.93523
405.307	8.09295
405.517	8.58928
405.727	8.49455
405.936	7.94089
406.146	8.33929
406.356	9.05159
406.565	8.1347
406.775	7.91512
406.984	7.9194
407.194	9.3251
407.404	8.12142
407.613	8.51778
407.823	8.66814
408.032	8.87158
408.242	8.79434
408.451	7.78559
408.661	8.09262
408.87	9.32449
409.08	7.80062
409.289	8.56053
409.499	8.42407
409.708	8.36089
409.918	7.09588
410.127	8.46811
410.336	9.28632
410.546	8.78188
410.755	8.06429
410.964	8.2253
411.174	7.81325
411.383	8.62988
411.592	8.59856
411.802	7.80877
412.011	8.85805
412.22	8.16897
412.429	9.34789
412.639	9.12594
412.848	8.94735
413.057	9.2255
413.266	9.09323
413.475	8.41863
413.685	8.79478
413.894	9.02209
414.103	9.13469
414.312	9.03224
414.521	8.35502
414.73	8.60741
414.939	9.86041
415.148	9.0313
415.357	8.85149
415.566	8.5967
415.776	8.49726
415.985	8.55269
416.194	9.30226
416.403	10.13499
416.611	8.20108
416.82	8.70236
417.029	9.12649
417.238	8.74403
417.447	8.6099
417.656	9.00994
417.865	8.74922
418.074	9.05323
418.283	9.15578
418.492	9.74972
418.7	9.6111
418.909	10.57443
419.118	9.78505
419.327	10.09641
419.536	10.05314
419.744	10.12029
419.953	11.30945
420.162	11.55023
420.371	11.02534
420.579	11.57398
420.788	12.43757
420.997	12.51198
421.205	12.91978
421.414	12.56845
421.623	12.72961
421.831	12.41572
422.04	12.84334
422.249	12.02604
422.457	12.37593
422.666	11.57323
422.874	12.38016
423.083	12.49771
423.291	12.44505
423.5	12.469
423.708	12.72824
423.917	13.18674
424.125	12.86438
424.334	12.69238
424.542	14.16339
424.751	13.77618
424.959	13.29323
425.167	13.27025
425.376	13.23721
425.584	12.01131
425.793	11.95126
426.001	10.9554
426.209	11.08112
426.418	9.98249
426.626	9.75525
426.834	9.51062
