Data from WindowProjectSample_Transmission__10__00010.txt Node

Date: Sat May 03 15:04:16 EDT 2025
User: jessi
Spectrometer: SR400872
Trigger mode: 0
Integration Time (sec): 5.000010E-1
Scans to average: 6
Electric dark correction enabled: true
Nonlinearity correction enabled: true
Boxcar width: 0
XAxis mode: Wavelengths
Number of Pixels in Spectrum: 3648
>>>>>Begin Spectral Data<<<<<
184.909	18368.50253
185.132	2612.01287
185.355	23891.70016
185.578	-8088.97115
185.801	465.16022
186.024	-1412.283
186.247	878.35874
186.47	1680.71034
186.693	-126.97276
186.916	-2226.22236
187.139	-2552.54069
187.362	1597.49521
187.585	2702.09096
187.808	-4174.70726
188.031	1045.44627
188.254	-1425.73601
188.476	-723.51092
188.699	2590.43896
188.922	-1230.46592
189.145	-9849.85323
189.368	-385.94053
189.591	-1258.68437
189.813	-1667.79769
190.036	1287.24357
190.259	1668.26519
190.482	588.13734
190.705	10720.47437
190.927	-952.96908
191.15	3497.45317
191.373	2357.998
191.595	-2313.21225
191.818	2503.86738
192.041	-437.86118
192.263	2836.76275
192.486	2259.56925
192.709	-5364.80968
192.931	2819.3886
193.154	-6364.77385
193.377	187042.33929
193.599	1414.90306
193.822	1843.75879
194.044	-2025.53642
194.267	515.7958
194.489	82.20417
194.712	1372.72778
194.934	3340.21646
195.157	-16003.22305
195.379	929.87209
195.602	2371.11853
195.824	2009.3858
196.047	2213.06278
196.269	3047.30828
196.492	3375.68293
196.714	2727.92655
196.936	1193.25325
197.159	1344.69751
197.381	-2146.66707
197.604	-1314.48222
197.826	6933.99939
198.048	3226.6616
198.271	4032.83218
198.493	2212.0527
198.715	-6386.06721
198.938	-588.88343
199.16	1803.25357
199.382	1456.34358
199.604	-611.81779
199.827	9599.16217
200.049	897.99579
200.271	-3071.68356
200.493	-55265.35042
200.715	2288.04948
200.938	6852.45918
201.16	-7132.07913
201.382	-2903.19458
201.604	-2091.0617
201.826	6818.4936
202.048	995.34481
202.27	-16853.48728
202.492	4999.3364
202.715	-1236.67649
202.937	4467.03038
203.159	-2155.61923
203.381	925.9291
203.603	-3777.61621
203.825	-3068.90332
204.047	3438.35378
204.269	-2052.57801
204.491	2359.93427
204.713	1905.10764
204.935	15605.77233
205.156	1596.20076
205.378	-7941.61426
205.6	-4479.15415
205.822	9339.2681
206.044	-614.02449
206.266	4117.41446
206.488	1093.91305
206.71	28083.37174
206.932	2473.36471
207.153	-4843.5384
207.375	-1860.83848
207.597	8493.57903
207.819	4248.25109
208.041	2237.59437
208.262	-2822.67777
208.484	-1262.21472
208.706	-2691.91738
208.927	29320.31657
209.149	867.72193
209.371	-6532.82558
209.593	1463.03418
209.814	4906.96426
210.036	-2207.82813
210.258	-5025.45961
210.479	-1319.82742
210.701	975.6358
210.922	6427.70836
211.144	-1132.93295
211.366	-6227.68433
211.587	-604.73954
211.809	9345.21913
212.03	-1325.07963
212.252	-1790.55184
212.473	749.95493
212.695	-2163.67359
212.916	2688.7651
213.138	3171.83461
213.359	-1724.17658
213.581	6448.18174
213.802	-1623.31302
214.024	17099.4714
214.245	-3191.33434
214.466	-818.22952
214.688	1621.77313
214.909	923.66797
215.131	-102967.56872
215.352	1688.27673
215.573	2560.69694
215.795	2962.38069
216.016	4300.14272
216.237	-680.10638
216.459	6926.71082
216.68	108722.84923
216.901	-85698.10538
217.122	2016.28644
217.344	5815.31822
217.565	-58171.68347
217.786	1611.6011
218.007	1794.46586
218.228	-1105.14516
218.45	-1153.38853
218.671	-1260.23453
218.892	1221.87402
219.113	-18270.18876
219.334	-422.13033
219.555	-5720.75182
219.776	1683.0871
219.997	3553.10153
220.219	1118.9698
220.44	2361.12403
220.661	-3496.01655
220.882	3605.86294
221.103	-1227.24097
221.324	900.12712
221.545	2299.82409
221.766	-6079.24152
221.987	3756.67688
222.208	-1845.95288
222.429	3511.56033
222.65	-159.52394
222.87	-525.32455
223.091	9096.96996
223.312	2704.07384
223.533	7063.06616
223.754	1937.06456
223.975	1421.27789
224.196	-11467.45703
224.417	1039.52059
224.637	809.83702
224.858	-481.33699
225.079	6764.76119
225.3	602.87903
225.521	2092.85325
225.741	1371.77962
225.962	723.24819
226.183	328.98519
226.404	659.06004
226.624	598.08714
226.845	366.47063
227.066	394.54079
227.286	204.89355
227.507	89.33149
227.728	79.0199
227.948	129.42957
228.169	35.66306
228.389	45.70509
228.61	26.84422
228.831	35.50272
229.051	2.68031
229.272	22.21681
229.492	32.15419
229.713	9.23974
229.933	21.50322
230.154	19.36264
230.374	32.76501
230.595	24.28527
230.815	16.75681
231.036	22.93045
231.256	-5.39747
231.477	44.0097
231.697	25.8047
231.917	26.22274
232.138	40.12283
232.358	79.28571
232.579	64.86465
232.799	11.98193
233.019	67.54619
233.24	78.48384
233.46	22.31066
233.68	43.09797
233.901	33.3528
234.121	20.58528
234.341	8.56977
234.561	-2.6885
234.782	13.96207
235.002	45.13028
235.222	-0.56222
235.442	41.481
235.662	22.02689
235.883	42.23488
236.103	35.09368
236.323	25.96825
236.543	18.86415
236.763	30.64023
236.983	29.73027
237.203	31.25946
237.423	44.70166
237.643	64.6932
237.864	53.77519
238.084	14.17631
238.304	20.399
238.524	33.26191
238.744	27.66972
238.964	49.43877
239.184	43.70334
239.404	45.97785
239.624	23.60839
239.843	40.56521
240.063	24.46586
240.283	15.46846
240.503	17.3018
240.723	16.5194
240.943	9.12383
241.163	13.42393
241.383	10.34632
241.603	4.70532
241.822	6.30691
242.042	4.7563
242.262	5.91703
242.482	6.57344
242.702	8.07389
242.921	2.69254
243.141	6.07181
243.361	4.75532
243.581	7.6427
243.8	6.00706
244.02	4.14643
244.24	7.83692
244.459	7.46061
244.679	14.32555
244.899	9.23596
245.118	10.65975
245.338	8.11504
245.558	11.56914
245.777	6.05974
245.997	7.38842
246.216	7.49899
246.436	4.23365
246.655	3.31218
246.875	2.6187
247.094	4.85417
247.314	1.71043
247.533	2.94797
247.753	3.49695
247.972	2.64477
248.192	0.92747
248.411	1.73232
248.631	3.28217
248.85	4.08655
249.07	2.76681
249.289	5.1383
249.508	3.9554
249.728	6.13478
249.947	6.44685
250.166	7.38435
250.386	3.84402
250.605	5.89185
250.824	8.50775
251.044	6.60254
251.263	21.56075
251.482	10.19112
251.701	10.12656
251.921	0.09125
252.14	3.19495
252.359	3.46051
252.578	8.03129
252.798	3.0473
253.017	7.61756
253.236	4.15806
253.455	5.39491
253.674	9.94961
253.893	5.48837
254.112	6.69045
254.331	9.18134
254.551	8.12739
254.77	3.47535
254.989	11.10139
255.208	10.15863
255.427	12.44498
255.646	10.74911
255.865	17.91201
256.084	7.02232
256.303	7.7536
256.522	11.8691
256.741	3.23128
256.96	3.11048
257.179	7.59719
257.397	8.11599
257.616	4.68066
257.835	5.00884
258.054	11.71755
258.273	7.1058
258.492	8.68764
258.711	5.20828
258.93	2.35811
259.148	3.30104
259.367	3.34821
259.586	4.45484
259.805	2.10273
260.023	4.32365
260.242	3.11826
260.461	2.2272
260.68	1.24723
260.898	3.85783
261.117	1.46181
261.336	0.92423
261.554	3.20745
261.773	3.3266
261.992	0.65146
262.21	3.1917
262.429	3.39998
262.648	6.14476
262.866	7.40578
263.085	4.36434
263.303	4.34192
263.522	7.53319
263.74	7.54568
263.959	12.17524
264.178	6.56655
264.396	5.47439
264.615	4.20381
264.833	10.10901
265.051	8.25762
265.27	8.18795
265.488	9.11215
265.707	5.72251
265.925	9.59671
266.144	4.3293
266.362	5.3342
266.58	5.19375
266.799	4.24311
267.017	5.0574
267.235	4.65188
267.454	2.58929
267.672	1.70904
267.89	3.86856
268.109	4.1233
268.327	3.84497
268.545	0.82795
268.763	3.72439
268.982	1.41678
269.2	4.43096
269.418	2.79765
269.636	1.97972
269.854	3.77731
270.073	3.28142
270.291	1.57592
270.509	1.80576
270.727	3.80519
270.945	6.244
271.163	5.98883
271.381	1.48228
271.599	2.75617
271.817	4.60154
272.036	1.369
272.254	2.7454
272.472	2.188
272.69	2.17403
272.908	2.17747
273.126	3.95773
273.344	4.87389
273.562	1.60938
273.779	2.1845
273.997	3.48616
274.215	4.0267
274.433	2.80522
274.651	4.00812
274.869	4.04588
275.087	2.60915
275.305	3.59104
275.523	2.02374
275.74	2.57382
275.958	5.01869
276.176	7.01212
276.394	2.16027
276.612	2.91486
276.829	2.77199
277.047	2.16253
277.265	2.74919
277.483	3.07451
277.7	4.0189
277.918	3.00476
278.136	5.4304
278.353	2.7966
278.571	1.33179
278.789	4.804
279.006	0.81776
279.224	2.74747
279.442	4.29094
279.659	3.23001
279.877	2.37728
280.094	4.88855
280.312	1.2287
280.529	3.02604
280.747	0.88491
280.964	2.38035
281.182	5.31089
281.399	2.51748
281.617	3.5467
281.834	2.32246
282.052	2.05699
282.269	2.72135
282.487	2.29098
282.704	1.7276
282.921	2.22818
283.139	2.87983
283.356	3.56736
283.574	3.18452
283.791	1.83267
284.008	4.65281
284.226	2.5317
284.443	2.91523
284.66	3.60489
284.877	2.92459
285.095	1.95135
285.312	1.49959
285.529	0.91748
285.746	0.67244
285.964	1.73686
286.181	1.22274
286.398	1.8372
286.615	2.37378
286.832	2.31122
287.05	0.83078
287.267	1.64366
287.484	1.808
287.701	2.57727
287.918	2.37935
288.135	2.5898
288.352	1.0884
288.569	1.47854
288.786	2.17852
289.003	1.8075
289.22	2.5458
289.437	1.62891
289.654	2.65792
289.871	2.61534
290.088	2.66118
290.305	2.03899
290.522	1.51903
290.739	2.03652
290.956	2.92148
291.173	3.30218
291.39	3.23595
291.607	2.26349
291.824	1.56743
292.04	1.40431
292.257	2.76031
292.474	3.01153
292.691	2.08117
292.908	1.15004
293.125	1.67856
293.341	1.03804
293.558	4.76715
293.775	1.78795
293.992	2.08447
294.208	0.99681
294.425	1.16354
294.642	1.68424
294.858	2.45294
295.075	0.85635
295.292	1.8598
295.508	2.14658
295.725	3.50746
295.942	1.74254
296.158	1.13901
296.375	1.90114
296.591	1.33063
296.808	1.6993
297.024	1.77791
297.241	2.02991
297.458	2.26072
297.674	0.18118
297.891	1.6807
298.107	1.29156
298.323	0.97536
298.54	2.65883
298.756	1.16831
298.973	0.5761
299.189	2.67778
299.406	1.23912
299.622	2.81463
299.838	2.7011
300.055	2.53551
300.271	0.74037
300.487	0.85187
300.704	1.19618
300.92	0.74918
301.136	3.68882
301.353	2.57781
301.569	1.80682
301.785	2.14001
302.001	2.50697
302.218	2.17981
302.434	2.10369
302.65	0.84291
302.866	1.46951
303.083	3.64305
303.299	3.29655
303.515	1.71588
303.731	1.97576
303.947	0.73727
304.163	1.12079
304.379	2.19736
304.595	2.31669
304.812	1.36846
305.028	1.01242
305.244	1.53943
305.46	2.45193
305.676	2.61605
305.892	2.97121
306.108	1.76707
306.324	1.39856
306.54	3.48796
306.756	2.44845
306.972	2.4086
307.187	1.70079
307.403	3.10405
307.619	1.32835
307.835	2.7537
308.051	3.15378
308.267	0.60737
308.483	2.67858
308.699	2.1887
308.914	1.97787
309.13	1.82397
309.346	0.57061
309.562	1.02113
309.778	0.6593
309.993	2.27653
310.209	1.71685
310.425	0.68829
310.641	1.56974
310.856	0.93665
311.072	0.86783
311.288	1.6477
311.503	1.90785
311.719	0.28743
311.935	0.19442
312.15	2.0201
312.366	1.79739
312.581	2.15447
312.797	1.8888
313.013	2.4081
313.228	1.33516
313.444	1.8404
313.659	1.35975
313.875	2.15246
314.09	1.67803
314.306	3.02968
314.521	2.44593
314.737	2.42039
314.952	2.15356
315.168	1.63252
315.383	2.39382
315.599	1.53196
315.814	1.57229
316.029	2.62373
316.245	0.52208
316.46	0.81176
316.675	2.98932
316.891	3.55665
317.106	4.31238
317.321	2.51528
317.537	2.40721
317.752	2.47167
317.967	2.674
318.183	1.27413
318.398	1.69805
318.613	2.7675
318.828	3.04264
319.043	2.64331
319.259	1.56873
319.474	2.24352
319.689	2.95411
319.904	0.55057
320.119	2.27424
320.334	2.20121
320.549	1.59487
320.765	2.85649
320.98	2.15485
321.195	2.74641
321.41	1.93644
321.625	2.51783
321.84	3.67678
322.055	3.50526
322.27	1.30894
322.485	1.0409
322.7	2.04251
322.915	3.02456
323.13	1.32365
323.345	3.15393
323.56	2.08336
323.775	2.67332
323.989	2.42969
324.204	2.1826
324.419	2.70668
324.634	0.86184
324.849	1.833
325.064	4.15615
325.279	2.95593
325.493	2.48009
325.708	2.78999
325.923	1.26604
326.138	1.27256
326.352	3.198
326.567	2.75606
326.782	1.72375
326.997	1.36075
327.211	2.26406
327.426	2.42315
327.641	1.41606
327.855	0.67062
328.07	2.4164
328.285	3.60404
328.499	1.69205
328.714	2.55147
328.928	2.68044
329.143	2.15612
329.358	2.84403
329.572	2.97596
329.787	3.20834
330.001	4.20371
330.216	0.75788
330.43	3.52146
330.645	3.46291
330.859	2.72952
331.074	1.53724
331.288	2.20281
331.503	3.15374
331.717	1.07983
331.931	2.01245
332.146	2.0109
332.36	3.7102
332.575	2.51564
332.789	2.28143
333.003	1.8901
333.218	2.48997
333.432	1.7651
333.646	2.51487
333.86	3.40623
334.075	3.52543
334.289	1.83678
334.503	1.31782
334.717	2.34768
334.932	2.39824
335.146	3.08143
335.36	1.84615
335.574	2.46876
335.788	2.42049
336.003	3.0216
336.217	2.71533
336.431	2.59805
336.645	1.47435
336.859	1.09953
337.073	1.80499
337.287	2.28946
337.501	1.16372
337.715	2.28152
337.929	2.59605
338.143	1.23693
338.357	2.01664
338.571	1.20194
338.785	2.41099
338.999	1.59689
339.213	1.74808
339.427	0.81571
339.641	2.85054
339.855	1.9462
340.069	1.56869
340.283	3.02856
340.497	3.5513
340.711	2.34065
340.924	1.58818
341.138	1.02476
341.352	0.85207
341.566	2.21498
341.78	0.67778
341.993	1.4515
342.207	1.00984
342.421	2.34113
342.635	2.01667
342.848	1.44626
343.062	0.15622
343.276	1.54834
343.49	3.80601
343.703	1.42453
343.917	2.61307
344.131	2.70337
344.344	1.50824
344.558	1.45939
344.771	1.24813
344.985	3.21854
345.199	3.29015
345.412	2.12184
345.626	2.19865
345.839	0.692
346.053	1.04199
346.266	0.9942
346.48	2.58577
346.693	2.15586
346.907	2.41664
347.12	1.2572
347.334	2.11482
347.547	2.30546
347.76	1.68201
347.974	2.88871
348.187	2.26372
348.401	1.55404
348.614	1.49739
348.827	1.71042
349.041	2.39074
349.254	0.68418
349.467	1.80702
349.681	0.67679
349.894	1.52795
350.107	3.00027
350.32	3.31402
350.534	0.5588
350.747	1.56937
350.96	1.28469
351.173	1.31355
351.386	1.82493
351.6	1.54681
351.813	1.28852
352.026	2.03154
352.239	0.86982
352.452	1.43756
352.665	2.46917
352.878	1.65294
353.092	3.73261
353.305	2.19122
353.518	2.17296
353.731	1.21513
353.944	2.9166
354.157	1.19776
354.37	1.22094
354.583	0.77364
354.796	0.63514
355.009	2.69619
355.222	1.85932
355.435	1.77195
355.647	2.6607
355.86	0.99979
356.073	1.74525
356.286	1.38857
356.499	2.27499
356.712	2.00465
356.925	2.1007
357.138	2.53159
357.35	0.98319
357.563	1.40922
357.776	1.82183
357.989	1.35863
358.201	2.13124
358.414	1.67098
358.627	2.69922
358.84	1.38365
359.052	0.92249
359.265	0.93051
359.478	2.61406
359.69	-0.3126
359.903	2.03598
360.116	2.19947
360.328	0.43925
360.541	2.27963
360.753	0.96332
360.966	1.0997
361.179	1.2877
361.391	1.21678
361.604	0.67147
361.816	1.17711
362.029	0.905
362.241	0.90544
362.454	1.1502
362.666	0.87229
362.879	1.39893
363.091	1.26573
363.304	0.89693
363.516	1.45069
363.728	0.68799
363.941	1.94747
364.153	0.9889
364.366	-0.06187
364.578	0.75006
364.79	1.91903
365.003	1.53933
365.215	1.35669
365.427	1.84089
365.639	2.48794
365.852	1.7345
366.064	3.06791
366.276	1.03894
366.488	1.91763
366.701	1.25184
366.913	1.38282
367.125	1.48287
367.337	1.10058
367.549	1.16884
367.762	1.64732
367.974	1.54747
368.186	0.88303
368.398	2.50068
368.61	1.96093
368.822	2.09907
369.034	1.75397
369.246	2.22043
369.458	3.43491
369.67	1.03159
369.882	2.89541
370.094	0.09097
370.306	2.95989
370.518	1.35751
370.73	0.96397
370.942	0.90501
371.154	1.27986
371.366	1.06606
371.578	1.87104
371.79	1.01117
372.002	2.5516
372.214	2.87018
372.425	1.73758
372.637	2.55753
372.849	1.59993
373.061	0.12354
373.273	1.91104
373.484	1.93562
373.696	2.27638
373.908	0.01949
374.12	2.34873
374.331	2.15882
374.543	1.04049
374.755	0.95403
374.967	1.81148
375.178	2.26998
375.39	1.63928
375.602	1.92748
375.813	0.93583
376.025	0.68126
376.236	1.57402
376.448	1.77546
376.66	1.37354
376.871	1.43299
377.083	2.5727
377.294	2.613
377.506	1.43526
377.717	2.61776
377.929	1.82543
378.14	1.23088
378.352	1.97958
378.563	2.17529
378.775	2.80759
378.986	1.19223
379.197	1.92187
379.409	1.39067
379.62	2.3385
379.832	2.07376
380.043	1.68459
380.254	2.01544
380.466	1.12141
380.677	4.0071
380.888	3.51961
381.1	4.00753
381.311	3.69673
381.522	2.02914
381.733	4.0436
381.945	1.91265
382.156	2.03152
382.367	1.86201
382.578	4.26291
382.789	4.34342
383.001	1.80002
383.212	3.18862
383.423	3.45146
383.634	3.06755
383.845	2.66823
384.056	1.90691
384.267	2.18935
384.478	2.22815
384.69	1.39531
384.901	2.72989
385.112	2.63466
385.323	3.48517
385.534	2.81825
385.745	2.7369
385.956	2.68823
386.167	1.81128
386.378	2.77567
386.588	1.92504
386.799	1.94099
387.01	1.54155
387.221	3.34302
387.432	2.65937
387.643	4.07595
387.854	2.65091
388.065	2.64389
388.275	2.8777
388.486	2.67379
388.697	2.8645
388.908	2.6183
389.119	3.929
389.329	4.20183
389.54	3.07302
389.751	3.54468
389.962	4.02021
390.172	3.33466
390.383	3.09116
390.594	2.81643
390.804	2.86771
391.015	3.02388
391.226	3.60925
391.436	3.8071
391.647	3.80898
391.858	3.91965
392.068	2.5555
392.279	3.00014
392.489	3.70174
392.7	4.42923
392.91	3.32884
393.121	3.41988
393.331	4.23627
393.542	4.76713
393.752	4.49482
393.963	4.27589
394.173	4.30558
394.384	4.60216
394.594	4.1125
394.804	3.63743
395.015	4.29531
395.225	4.65031
395.436	3.48802
395.646	4.74273
395.856	4.04367
396.067	3.51469
396.277	5.06979
396.487	4.72603
396.697	4.86992
396.908	5.22488
397.118	5.14746
397.328	4.77554
397.538	5.4107
397.749	4.47751
397.959	5.47391
398.169	5.60482
398.379	4.23197
398.589	5.29628
398.8	5.35762
399.01	5.23092
399.22	5.03989
399.43	6.7521
399.64	5.28882
399.85	5.64365
400.06	5.57719
400.27	4.8946
400.48	5.43875
400.69	6.38798
400.9	5.31127
401.11	4.88403
401.32	6.26074
401.53	5.26794
401.74	6.71262
401.95	6.22866
402.16	5.64369
402.37	6.20111
402.58	5.67056
402.79	6.5526
403	6.87066
403.209	5.78517
403.419	7.00478
403.629	6.09293
403.839	7.02785
404.049	7.20007
404.258	6.45235
404.468	6.24603
404.678	7.2303
404.888	7.51924
405.097	6.63027
405.307	6.76426
405.517	7.20871
405.727	7.19363
405.936	6.7352
406.146	6.9638
406.356	7.89179
406.565	6.91889
406.775	6.6169
406.984	6.67342
407.194	8.39169
407.404	7.06395
407.613	7.56041
407.823	7.80228
408.032	7.92241
408.242	7.83654
408.451	7.06357
408.661	7.33122
408.87	8.50354
409.08	6.98767
409.289	7.86058
409.499	7.91252
409.708	7.6602
409.918	6.40919
410.127	7.97911
410.336	8.84219
410.546	8.4314
410.755	7.58217
410.964	7.58132
411.174	7.29643
411.383	8.25852
411.592	8.11727
411.802	7.25046
412.011	8.69075
412.22	8.16361
412.429	9.16836
412.639	9.00112
412.848	8.91048
413.057	9.48647
413.266	8.93221
413.475	8.18223
413.685	8.85247
413.894	8.81214
414.103	9.1391
414.312	9.14813
414.521	8.49618
414.73	8.88081
414.939	10.02741
415.148	8.98926
415.357	9.13142
415.566	8.84278
415.776	8.66288
415.985	8.87044
416.194	9.38637
416.403	10.25202
416.611	8.39073
416.82	9.14551
417.029	9.40713
417.238	9.21527
417.447	8.9616
417.656	9.30392
417.865	9.37708
418.074	9.90581
418.283	10.50252
418.492	11.68752
418.7	11.30176
418.909	13.14686
419.118	11.83816
419.327	12.7148
419.536	12.25703
419.744	12.68192
419.953	14.06061
420.162	14.54576
420.371	13.67027
420.579	14.56831
420.788	15.5307
420.997	15.74066
421.205	15.91342
421.414	15.65212
421.623	15.45693
421.831	15.09834
422.04	15.60296
422.249	14.73535
422.457	14.99421
422.666	14.00386
422.874	15.10533
423.083	15.53965
423.291	15.17844
423.5	15.47485
423.708	15.96972
423.917	16.58498
424.125	15.86759
424.334	15.61014
424.542	17.4628
424.751	16.67679
424.959	16.25182
425.167	16.18085
425.376	15.85083
425.584	14.28557
425.793	14.10597
426.001	12.87121
426.209	12.97168
426.418	11.90661
426.626	10.98965
426.834	10.68839
427.042	10.39908
427.251	10.15241
427.459	11.02663
