Data from WindowProjectSample_Transmission__25__00025__07105889284695441.txt Node

Date: Mon May 05 17:25:32 EDT 2025
User: jessi
Spectrometer: SR400872
Trigger mode: 0
Integration Time (sec): 5.000010E-1
Scans to average: 20
Electric dark correction enabled: true
Nonlinearity correction enabled: true
Boxcar width: 0
XAxis mode: Wavelengths
Number of Pixels in Spectrum: 3648
>>>>>Begin Spectral Data<<<<<
184.909	20512.23012
185.132	-5026.93322
185.355	-3013.79783
185.578	-17437.55043
185.801	1837.69734
186.024	10070.71896
186.247	-1883.31897
186.47	1126.04213
186.693	377.4024
186.916	225.50781
187.139	-3607.85151
187.362	3277.23581
187.585	4015.94414
187.808	3440.05402
188.031	-36.91082
188.254	-45727.81154
188.476	-712.91604
188.699	6068.17962
188.922	502.04031
189.145	-15029.90287
189.368	-615.87499
189.591	-1220.16913
189.813	2950.38871
190.036	-48825.07437
190.259	-802.03308
190.482	-4455.60237
190.705	6962.7291
190.927	-2402.90446
191.15	13163.91176
191.373	3473.58866
191.595	-8268.33134
191.818	-4023.3404
192.041	-4905.16883
192.263	-3423.81218
192.486	-760.92171
192.709	-3835.36932
192.931	7828.8917
193.154	-27584.49582
193.377	-2742.98775
193.599	-2530.60051
193.822	-8764.39568
194.044	-1823.41725
194.267	1149.18571
194.489	297.89944
194.712	-42725.20263
194.934	-30916.65046
195.157	1165.06416
195.379	1307.25227
195.602	-6908.80318
195.824	-1340.04439
196.047	-9410.66603
196.269	2696.53451
196.492	-6568.86612
196.714	27648.62316
196.936	-8033.38995
197.159	-1111.18101
197.381	1116.9337
197.604	291.48118
197.826	11962.71132
198.048	-10773.87625
198.271	-2860.24571
198.493	7172.50517
198.715	2213.46788
198.938	-480.50464
199.16	7248.57324
199.382	-103630.99152
199.604	2798.50652
199.827	-1072.25835
200.049	-2940.47901
200.271	13599.06687
200.493	1189.96391
200.715	-36472.2996
200.938	-6060.86755
201.16	-4188.7308
201.382	19960.42707
201.604	2270.29018
201.826	2234.24804
202.048	-1896.10545
202.27	-1954.85889
202.492	-34351.73751
202.715	2787.0911
202.937	-4499.65842
203.159	-6068.02238
203.381	1447.24278
203.603	6746.65464
203.825	5850.13582
204.047	2349.92704
204.269	-2622.03233
204.491	2104.18407
204.713	5766.4481
204.935	-484709.72369
205.156	1150.97344
205.378	-2896.70854
205.6	1629.28461
205.822	147054.76196
206.044	-944.25906
206.266	1547.01265
206.488	4779.99321
206.71	-5124.72738
206.932	1035.79124
207.153	11656.08707
207.375	-7105.24258
207.597	-37333.62084
207.819	-2728.14788
208.041	2439.27486
208.262	474.18646
208.484	710.52177
208.706	-803.06704
208.927	-846.24805
209.149	538.30151
209.371	-2924.30812
209.593	-248.8578
209.814	-832.73534
210.036	628.50549
210.258	-687.50241
210.479	1755.78765
210.701	1653.85302
210.922	3131.50218
211.144	-3869.48126
211.366	2133.8977
211.587	5779.7537
211.809	-8144.92013
212.03	2240.50114
212.252	439.94214
212.473	1939.57137
212.695	-6666.40428
212.916	2753.36824
213.138	-664.9507
213.359	3588.99563
213.581	5063.62224
213.802	-860.42855
214.024	1055.03796
214.245	1999.40608
214.466	2597.25399
214.688	-3044.85633
214.909	-1161.61042
215.131	-1692.27709
215.352	-3014.59314
215.573	14254.3843
215.795	4946.72871
216.016	5242.75791
216.237	755.27124
216.459	3558.50436
216.68	1783.15004
216.901	4681.38575
217.122	-3211.07735
217.344	-11045.11102
217.565	3384.96569
217.786	8699.16372
218.007	16522.74872
218.228	-839.51739
218.45	5807.42925
218.671	758.10271
218.892	37445.98334
219.113	1532.43768
219.334	-291.99635
219.555	9006.95323
219.776	2953.94242
219.997	21613.68743
220.219	2637.35447
220.44	-10788.38268
220.661	449.94586
220.882	1479.86615
221.103	-1043.66458
221.324	2146.92303
221.545	2278.23517
221.766	-8651.98113
221.987	965.26936
222.208	1624.57914
222.429	4186.61317
222.65	235.47144
222.87	17154.03141
223.091	708.27729
223.312	535.98006
223.533	1394.53441
223.754	1446.7959
223.975	1361.79595
224.196	2100.31656
224.417	1360.59663
224.637	593.80214
224.858	101.40354
225.079	1116.51547
225.3	659.44409
225.521	3718.62896
225.741	477.76406
225.962	492.26987
226.183	130.09996
226.404	658.25429
226.624	403.40963
226.845	641.58543
227.066	384.84125
227.286	239.48983
227.507	129.99255
227.728	116.5762
227.948	230.85158
228.169	76.40448
228.389	81.9431
228.61	48.31537
228.831	59.91925
229.051	3.23858
229.272	37.56149
229.492	55.76636
229.713	13.64118
229.933	36.82992
230.154	31.43337
230.374	52.20964
230.595	38.18894
230.815	25.01537
231.036	37.65489
231.256	-10.20392
231.477	69.70036
231.697	35.30178
231.917	40.43944
232.138	53.03173
232.358	109.9429
232.579	99.54236
232.799	21.06091
233.019	101.24418
233.24	109.13075
233.46	37.89257
233.68	58.79127
233.901	40.70305
234.121	27.10969
234.341	15.31775
234.561	-4.79579
234.782	20.48039
235.002	64.33102
235.222	-5.75169
235.442	63.90196
235.662	31.3952
235.883	61.82938
236.103	48.37131
236.323	33.00604
236.543	26.83524
236.763	39.19207
236.983	42.49666
237.203	41.13527
237.423	54.79389
237.643	87.07005
237.864	74.03383
238.084	17.46343
238.304	25.7473
238.524	40.74027
238.744	39.34304
238.964	72.14778
239.184	59.89026
239.404	59.84727
239.624	32.7549
239.843	59.67715
240.063	35.60757
240.283	22.69842
240.503	24.08926
240.723	24.13085
240.943	13.82578
241.163	19.88659
241.383	14.00551
241.603	7.24474
241.822	9.36972
242.042	5.91262
242.262	8.21908
242.482	9.48312
242.702	10.39428
242.921	2.40798
243.141	6.47497
243.361	5.90159
243.581	9.52476
243.8	7.00451
244.02	5.28029
244.24	9.03734
244.459	9.07312
244.679	17.77351
244.899	11.17198
245.118	12.15041
245.338	11.94635
245.558	13.35361
245.777	8.14161
245.997	10.80243
246.216	10.41992
246.436	6.03458
246.655	4.79389
246.875	3.18737
247.094	6.23542
247.314	1.99824
247.533	3.38553
247.753	4.29122
247.972	3.31562
248.192	1.02517
248.411	1.69181
248.631	3.39464
248.85	4.63193
249.07	3.78291
249.289	5.64659
249.508	4.73833
249.728	6.74265
249.947	6.80602
250.166	8.51431
250.386	4.13885
250.605	6.50358
250.824	10.5117
251.044	7.26635
251.263	28.21348
251.482	14.5968
251.701	11.30022
251.921	0.05871
252.14	3.26317
252.359	3.61939
252.578	9.52195
252.798	3.37836
253.017	8.70675
253.236	4.19527
253.455	5.12369
253.674	10.00522
253.893	5.01405
254.112	7.78488
254.331	10.63876
254.551	8.05162
254.77	3.59609
254.989	12.57358
255.208	9.12178
255.427	14.73544
255.646	11.02532
255.865	21.72539
256.084	8.51387
256.303	9.79772
256.522	12.92801
256.741	2.71532
256.96	2.95542
257.179	8.38768
257.397	10.77652
257.616	5.83301
257.835	6.0658
258.054	14.45557
258.273	9.93791
258.492	10.74281
258.711	6.33818
258.93	3.02176
259.148	4.67255
259.367	4.73895
259.586	5.34446
259.805	2.36174
260.023	5.21672
260.242	3.73049
260.461	2.701
260.68	1.26626
260.898	4.3105
261.117	1.33774
261.336	0.88231
261.554	3.43712
261.773	3.2817
261.992	0.83889
262.21	3.08817
262.429	3.31533
262.648	7.00771
262.866	7.91827
263.085	5.54107
263.303	4.68541
263.522	8.21717
263.74	8.69691
263.959	15.166
264.178	7.02313
264.396	6.44745
264.615	4.78082
264.833	10.29193
265.051	8.7331
265.27	10.61225
265.488	10.71443
265.707	5.92925
265.925	10.77635
266.144	4.46863
266.362	5.36474
266.58	5.35613
266.799	4.84517
267.017	5.91528
267.235	5.07521
267.454	3.15432
267.672	1.72657
267.89	4.01219
268.109	4.23728
268.327	4.33226
268.545	0.59453
268.763	3.99498
268.982	1.66396
269.2	4.07904
269.418	3.16385
269.636	1.88272
269.854	4.72599
270.073	3.08334
270.291	1.79252
270.509	1.82292
270.727	4.18824
270.945	7.05674
271.163	6.97871
271.381	1.27616
271.599	3.12629
271.817	5.09715
272.036	1.74579
272.254	2.88433
272.472	2.23686
272.69	2.5155
272.908	2.38766
273.126	4.51472
273.344	5.23238
273.562	1.73207
273.779	2.64249
273.997	3.51045
274.215	4.2442
274.433	2.83236
274.651	4.16949
274.869	4.58879
275.087	2.65513
275.305	4.11564
275.523	2.40916
275.74	2.7947
275.958	5.35542
276.176	8.12606
276.394	2.58308
276.612	3.10173
276.829	2.94288
277.047	2.46438
277.265	2.83252
277.483	3.24781
277.7	4.23235
277.918	3.30391
278.136	6.09991
278.353	3.07549
278.571	1.62637
278.789	4.14579
279.006	0.8582
279.224	2.88481
279.442	5.01923
279.659	3.53866
279.877	2.54296
280.094	5.64646
280.312	0.98188
280.529	3.31973
280.747	1.06201
280.964	2.39133
281.182	5.78654
281.399	2.57846
281.617	3.67362
281.834	2.3189
282.052	1.77683
282.269	2.99844
282.487	2.41145
282.704	2.12939
282.921	1.99026
283.139	3.3698
283.356	3.95886
283.574	3.65064
283.791	1.92661
284.008	5.38918
284.226	2.95114
284.443	3.1877
284.66	4.39866
284.877	3.22397
285.095	2.05001
285.312	1.55533
285.529	0.89826
285.746	0.76481
285.964	1.99903
286.181	1.2822
286.398	1.88117
286.615	2.51158
286.832	2.51084
287.05	0.56294
287.267	1.77778
287.484	1.8181
287.701	2.49629
287.918	2.4614
288.135	2.59222
288.352	1.27114
288.569	1.3876
288.786	2.34082
289.003	1.92135
289.22	2.95798
289.437	1.61883
289.654	2.84857
289.871	2.95938
290.088	2.82993
290.305	2.22825
290.522	1.75073
290.739	1.89177
290.956	2.97783
291.173	3.37461
291.39	3.35762
291.607	2.26308
291.824	1.69227
292.04	1.2678
292.257	2.73433
292.474	3.16793
292.691	1.84326
292.908	0.91997
293.125	1.7299
293.341	1.10448
293.558	4.95071
293.775	1.98106
293.992	1.96993
294.208	0.93442
294.425	1.3833
294.642	1.95187
294.858	2.97112
295.075	0.73204
295.292	1.99279
295.508	2.43814
295.725	4.07407
295.942	1.90039
296.158	1.4779
296.375	2.36027
296.591	1.86151
296.808	2.17652
297.024	2.52267
297.241	2.75786
297.458	3.02168
297.674	0.93553
297.891	2.51217
298.107	2.39319
298.323	1.83156
298.54	4.01492
298.756	2.29607
298.973	1.63161
299.189	4.28068
299.406	2.49287
299.622	3.93433
299.838	3.92067
300.055	3.81946
300.271	2.05263
300.487	2.39955
300.704	2.83684
300.92	2.34207
301.136	5.87556
301.353	4.14548
301.569	3.57099
301.785	3.89302
302.001	4.43221
302.218	4.00444
302.434	4.38451
302.65	2.76826
302.866	3.56658
303.083	5.98071
303.299	5.97629
303.515	4.14737
303.731	4.52717
303.947	3.02942
304.163	3.85959
304.379	4.32742
304.595	4.72258
304.812	3.73338
305.028	3.84316
305.244	4.16892
305.46	5.18079
305.676	5.24665
305.892	5.80938
306.108	5.08311
306.324	4.26695
306.54	6.38975
306.756	5.252
306.972	4.93333
307.187	4.71766
307.403	6.0202
307.619	4.21979
307.835	5.82753
308.051	6.24295
308.267	4.01302
308.483	6.12561
308.699	5.37962
308.914	5.05649
309.13	4.90204
309.346	4.05558
309.562	4.31774
309.778	4.22994
309.993	5.62276
310.209	5.51136
310.425	4.41593
310.641	5.47142
310.856	4.69252
311.072	4.62364
311.288	5.49758
311.503	5.85097
311.719	4.16577
311.935	4.26138
312.15	6.25098
312.366	5.91242
312.581	6.1977
312.797	5.79339
313.013	6.49143
313.228	5.08359
313.444	5.37236
313.659	5.07506
313.875	5.96729
314.09	5.45555
314.306	6.61199
314.521	6.24343
314.737	6.21517
314.952	5.61481
315.168	5.74787
315.383	6.12673
315.599	5.28148
315.814	5.28677
316.029	6.16333
316.245	4.82374
316.46	4.13991
316.675	6.64332
316.891	7.2298
317.106	8.42141
317.321	5.98508
317.537	6.40383
317.752	6.65054
317.967	6.66684
318.183	5.0764
318.398	5.3472
318.613	6.34553
318.828	7.10433
319.043	6.47676
319.259	5.62118
319.474	5.89187
319.689	6.84718
319.904	4.35458
320.119	6.68102
320.334	5.94426
320.549	5.6617
320.765	6.86608
320.98	6.31651
321.195	6.27
321.41	5.87751
321.625	6.52445
321.84	7.43486
322.055	7.43162
322.27	5.38593
322.485	4.96312
322.7	6.59834
322.915	6.68933
323.13	5.52426
323.345	7.51671
323.56	6.8615
323.775	6.81124
323.989	6.59859
324.204	6.31611
324.419	7.34872
324.634	5.24404
324.849	6.32659
325.064	9.25832
325.279	7.31535
325.493	6.59434
325.708	6.99649
325.923	5.70291
326.138	6.13521
326.352	7.75502
326.567	7.20249
326.782	5.94126
326.997	5.90821
327.211	6.87162
327.426	6.67186
327.641	6.08181
327.855	5.13342
328.07	6.84699
328.285	8.19699
328.499	5.92664
328.714	6.44416
328.928	6.76563
329.143	6.22987
329.358	7.33599
329.572	7.17816
329.787	7.73096
330.001	8.52905
330.216	5.2224
330.43	8.18912
330.645	7.62204
330.859	7.23257
331.074	5.65761
331.288	6.47548
331.503	7.9424
331.717	5.48599
331.931	6.51425
332.146	6.70765
332.36	8.18842
332.575	6.74898
332.789	6.65448
333.003	6.85974
333.218	6.92502
333.432	6.11927
333.646	7.46817
333.86	8.3169
334.075	7.82446
334.289	6.07465
334.503	5.50197
334.717	7.00705
334.932	6.66758
335.146	7.41767
335.36	5.92258
335.574	7.09729
335.788	6.9408
336.003	7.49672
336.217	7.29263
336.431	7.1456
336.645	6.23675
336.859	5.86396
337.073	6.83853
337.287	7.05329
337.501	5.67388
337.715	7.31117
337.929	7.48232
338.143	6.03561
338.357	6.75026
338.571	6.45906
338.785	7.51547
338.999	6.37808
339.213	6.44628
339.427	5.7721
339.641	8.1087
339.855	6.38172
340.069	6.09421
340.283	7.74527
340.497	8.28925
340.711	7.35427
340.924	6.83588
341.138	6.07498
341.352	5.84496
341.566	7.12758
341.78	5.7939
341.993	6.67246
342.207	6.37042
342.421	7.2328
342.635	6.79589
342.848	6.81713
343.062	5.11939
343.276	6.46459
343.49	8.58051
343.703	6.46099
343.917	7.8859
344.131	8.0826
344.344	6.3374
344.558	6.7486
344.771	5.92099
344.985	8.32866
345.199	8.4139
345.412	7.46529
345.626	7.52022
345.839	5.87653
346.053	6.31304
346.266	6.35779
346.48	7.61265
346.693	7.41321
346.907	7.31361
347.12	6.37644
347.334	7.28628
347.547	7.40579
347.76	6.83579
347.974	8.01464
348.187	7.14853
348.401	6.69703
348.614	6.16726
348.827	6.80078
349.041	7.24504
349.254	5.79648
349.467	6.57351
349.681	6.21726
349.894	6.3901
350.107	8.09987
350.32	8.63734
350.534	6.15533
350.747	6.75592
350.96	6.57773
351.173	6.60357
351.386	6.95842
351.6	6.61157
351.813	6.63705
352.026	6.93143
352.239	6.1996
352.452	6.7967
352.665	8.12638
352.878	6.91686
353.092	8.726
353.305	7.83043
353.518	7.37982
353.731	6.39595
353.944	7.98969
354.157	6.88332
354.37	6.756
354.583	6.32586
354.796	6.25405
355.009	7.92233
355.222	7.55834
355.435	7.34464
355.647	8.18285
355.86	6.74415
356.073	7.59287
356.286	6.93829
356.499	8.22486
356.712	7.93807
356.925	7.96179
357.138	8.24559
357.35	6.98389
357.563	7.1982
357.776	7.64866
357.989	7.55108
358.201	8.07034
358.414	7.93955
358.627	8.71561
358.84	7.55771
359.052	6.78164
359.265	7.12609
359.478	8.42221
359.69	5.83172
359.903	8.26808
360.116	8.52368
360.328	6.75707
360.541	8.28899
360.753	7.37752
360.966	7.60053
361.179	7.83128
361.391	7.6475
361.604	7.51462
361.816	7.78766
362.029	7.84811
362.241	7.57982
362.454	7.97748
362.666	7.48158
362.879	8.50964
363.091	7.88028
363.304	7.65255
363.516	7.80818
363.728	7.22821
363.941	8.24982
364.153	8.06015
364.366	6.53403
364.578	7.16379
364.79	8.04837
365.003	8.14151
365.215	7.43949
365.427	8.32597
365.639	8.46892
365.852	7.96964
366.064	9.31103
366.276	7.77946
366.488	7.99567
366.701	7.53566
366.913	7.76353
367.125	7.79781
367.337	7.29658
367.549	7.55721
367.762	7.79345
367.974	7.81555
368.186	7.60176
368.398	8.53975
368.61	8.1132
368.822	8.26139
369.034	7.5658
369.246	8.41794
369.458	10.03765
369.67	7.32347
369.882	9.07493
370.094	6.63763
370.306	8.90901
370.518	7.73916
370.73	7.57963
370.942	7.64365
371.154	7.97182
371.366	7.83305
371.578	8.36841
371.79	7.87273
372.002	8.75938
372.214	9.62023
372.425	8.00778
372.637	9.30732
372.849	8.39221
373.061	6.88017
373.273	8.38459
373.484	8.2977
373.696	8.67483
373.908	6.67838
374.12	8.83027
374.331	8.60619
374.543	7.53447
374.755	7.6461
374.967	8.14889
375.178	8.97169
375.39	7.91577
375.602	8.39538
375.813	7.1752
376.025	7.75924
376.236	8.43899
376.448	8.60347
376.66	8.17156
376.871	8.35244
377.083	9.17334
377.294	9.77195
377.506	8.21456
377.717	9.55423
377.929	8.85098
378.14	8.44265
378.352	8.72416
378.563	9.13222
378.775	9.61294
378.986	7.86831
379.197	8.59048
379.409	8.07482
379.62	8.88045
379.832	8.85682
380.043	8.40094
380.254	8.75104
380.466	7.91244
380.677	10.53999
380.888	9.82841
381.1	10.43102
381.311	10.46946
381.522	8.91962
381.733	10.57619
381.945	8.69934
382.156	8.50683
382.367	8.39301
382.578	10.64634
382.789	10.60216
383.001	8.30674
383.212	10.0686
383.423	9.96111
383.634	9.66744
383.845	9.49394
384.056	8.66564
384.267	8.96251
384.478	9.05215
384.69	8.22955
384.901	9.36325
385.112	9.19099
385.323	10.31313
385.534	9.36306
385.745	9.31451
385.956	9.25964
386.167	8.5612
386.378	9.52524
386.588	8.71317
386.799	8.58721
387.01	8.17153
387.221	9.69736
387.432	9.25126
387.643	10.19533
387.854	8.98649
388.065	9.05789
388.275	9.16738
388.486	8.91187
388.697	9.23801
388.908	8.80246
389.119	10.0473
389.329	10.124
389.54	9.33719
389.751	9.49331
389.962	10.19593
390.172	9.37604
390.383	9.13593
390.594	8.90231
390.804	9.04353
391.015	9.08868
391.226	9.65059
391.436	9.78282
391.647	9.80826
391.858	9.93328
392.068	8.74642
392.279	9.01555
392.489	9.88157
392.7	10.33606
392.91	9.15362
393.121	9.16649
393.331	9.94177
393.542	10.29898
393.752	10.15229
393.963	9.94799
394.173	9.94697
394.384	10.09249
394.594	9.81059
394.804	9.01941
395.015	9.8259
395.225	9.9673
395.436	9.28586
395.646	9.99151
395.856	9.47169
396.067	8.95426
396.277	10.31066
396.487	9.94142
396.697	10.14867
396.908	10.01031
397.118	10.16721
397.328	9.87103
397.538	10.44555
397.749	9.22923
397.959	10.34
398.169	10.01879
398.379	9.0434
398.589	10.08373
398.8	9.86678
399.01	9.93482
399.22	9.64055
399.43	11.11666
399.64	9.9057
399.85	10.28838
400.06	10.06325
400.27	9.38704
400.48	9.89428
400.69	10.6203
400.9	9.58864
401.11	9.24996
401.32	10.37903
401.53	9.5527
401.74	10.81275
401.95	10.16185
402.16	9.52074
402.37	10.13537
402.58	9.72952
402.79	10.26632
403	10.59358
403.209	9.67355
403.419	10.77789
403.629	9.57119
403.839	10.74393
404.049	10.7058
404.258	9.88219
404.468	9.75417
404.678	10.5557
404.888	11.05742
405.097	10.13704
405.307	10.27586
405.517	10.71084
405.727	10.52891
405.936	10.1624
406.146	10.45396
406.356	11.23137
406.565	10.25758
406.775	10.06082
406.984	10.09258
407.194	11.45867
407.404	10.26831
407.613	10.68023
407.823	10.73414
408.032	10.9371
408.242	10.93783
408.451	10.04276
408.661	10.19271
408.87	11.38093
409.08	9.85062
409.289	10.59284
409.499	10.66762
409.708	10.55145
409.918	9.30881
410.127	10.62894
410.336	11.4954
410.546	10.96812
410.755	10.36825
410.964	10.45621
411.174	10.00564
411.383	10.93691
411.592	10.82428
411.802	10.15588
412.011	10.93305
412.22	10.52285
412.429	11.62739
412.639	11.43861
412.848	11.08283
413.057	11.46978
413.266	11.4402
413.475	10.62898
413.685	10.9822
413.894	11.2604
414.103	11.37676
414.312	11.21072
414.521	10.50979
414.73	10.86427
414.939	12.08641
415.148	11.29136
415.357	11.11236
415.566	10.80947
415.776	10.80042
415.985	10.98302
416.194	11.64279
416.403	12.23309
416.611	10.43537
416.82	11.00799
417.029	11.41452
417.238	11.0371
417.447	10.89506
417.656	11.35751
417.865	11.08554
418.074	11.345
418.283	11.53124
418.492	12.11644
418.7	12.0244
418.909	13.04716
419.118	12.13517
419.327	12.6017
419.536	12.5588
419.744	12.66325
419.953	13.98402
420.162	14.27333
420.371	13.84505
420.579	14.64563
420.788	15.43895
420.997	15.5908
421.205	16.17417
421.414	15.83268
421.623	15.8196
421.831	15.70573
422.04	16.13554
422.249	15.27936
422.457	15.52635
422.666	14.66438
422.874	15.46339
423.083	15.42077
423.291	15.46932
423.5	15.4663
423.708	15.98578
423.917	16.45045
424.125	16.00579
424.334	16.01385
424.542	17.58076
424.751	17.07836
424.959	16.72262
425.167	16.57941
425.376	16.64011
