Data from WindowProjectSample_Transmission__59__00059.txt Node

Date: Sat May 03 16:58:12 EDT 2025
User: jessi
Spectrometer: SR400872
Trigger mode: 0
Integration Time (sec): 5.000010E-1
Scans to average: 6
Electric dark correction enabled: true
Nonlinearity correction enabled: true
Boxcar width: 0
XAxis mode: Wavelengths
Number of Pixels in Spectrum: 3648
>>>>>Begin Spectral Data<<<<<
184.909	173475.35688
185.132	1645.11407
185.355	-2101.94608
185.578	3226.99942
185.801	-644.09789
186.024	6118.02751
186.247	1071.09718
186.47	697.33334
186.693	-308.3949
186.916	214.97391
187.139	10463.46983
187.362	3454.6633
187.585	2597.9058
187.808	-1472.33864
188.031	-2.51799
188.254	7625.46087
188.476	549.99619
188.699	-4101.83446
188.922	-333.65734
189.145	-4230.57778
189.368	-569.06011
189.591	-888.61315
189.813	-2340.51001
190.036	4971.37596
190.259	3684.59311
190.482	2345.9678
190.705	8482.15036
190.927	-1624.20075
191.15	-1587.776
191.373	4865.91755
191.595	-1865.9922
191.818	9070.97014
192.041	-158.52473
192.263	-2359.60607
192.486	-907.17779
192.709	9303.29548
192.931	-2638.60126
193.154	-1985.11237
193.377	4355.70305
193.599	5755.14135
193.822	-1774.16992
194.044	-1749.69817
194.267	684.44797
194.489	-137.1425
194.712	2219.92585
194.934	3486.76827
195.157	-9137.41882
195.379	2043.45256
195.602	5415.86876
195.824	5605.49594
196.047	-8949.18288
196.269	-10269.77407
196.492	-1230.0763
196.714	-4828.51919
196.936	4626.75201
197.159	-2428.21558
197.381	-509.71812
197.604	1195.60101
197.826	-3439.02438
198.048	-1317.573
198.271	-11720.78176
198.493	9618.57966
198.715	-2680.27272
198.938	-754.59215
199.16	-4068.94606
199.382	1788.01808
199.604	-1465.08766
199.827	-1344.366
200.049	-3948.68179
200.271	2620.46805
200.493	-25619.57552
200.715	4864.24167
200.938	12465.5452
201.16	-235456.93881
201.382	-5441.50607
201.604	-998.6705
201.826	-6816.10557
202.048	-7401.59472
202.27	-4638.51614
202.492	-3571.25919
202.715	-1513.51973
202.937	-3377.35423
203.159	1088.77131
203.381	-90255.32795
203.603	-1029.46655
203.825	-1271.59391
204.047	2138.11958
204.269	-953.10436
204.491	6872.73506
204.713	-8971.90394
204.935	36829.66139
205.156	2018.72368
205.378	-7049.01552
205.6	-1679.77823
205.822	6565.38915
206.044	-206.24702
206.266	-2061.40896
206.488	706.35974
206.71	-504381.82527
206.932	-15869.68726
207.153	11308.75887
207.375	-2108.53208
207.597	15450.57136
207.819	1668.29682
208.041	6150.2488
208.262	681.36234
208.484	-866.92832
208.706	-935.17675
208.927	11089.85684
209.149	-7602.5907
209.371	-2797.67802
209.593	-2465.12833
209.814	-4148.21682
210.036	2588.82512
210.258	-711.51991
210.479	2033.6191
210.701	828.67428
210.922	3907.36386
211.144	-1551.33492
211.366	5666.52766
211.587	-633.78102
211.809	-3482.06287
212.03	-2398.6397
212.252	-503.82306
212.473	2713.89452
212.695	-989.09933
212.916	-894.60727
213.138	561.50934
213.359	-1233.10908
213.581	-3765.39178
213.802	-1175.49021
214.024	10969.19932
214.245	-1132.91861
214.466	-143.91724
214.688	-3599.79071
214.909	-720.56851
215.131	9378.21627
215.352	-1316.2629
215.573	-257829.7037
215.795	4359.51963
216.016	-3736.11929
216.237	-650.73958
216.459	-11774.24609
216.68	-1733.71052
216.901	-1668.63165
217.122	1814.94745
217.344	-8576.8505
217.565	-1636.90985
217.786	22607.25473
218.007	949.81018
218.228	-3950.67851
218.45	-5650.75538
218.671	-1336.41862
218.892	908.85734
219.113	1578.87958
219.334	283.01919
219.555	-6212.76692
219.776	31586.22381
219.997	-6548.93331
220.219	-9616.04837
220.44	-4928.59016
220.661	-1345.5615
220.882	12645.73439
221.103	-733.16544
221.324	2264.89304
221.545	-6460.76166
221.766	-1445.11689
221.987	-471.78296
222.208	1881.01367
222.429	6497.65509
222.65	-137.98878
222.87	-700.59552
223.091	39567.25672
223.312	806.37709
223.533	-2283.705
223.754	3487.16415
223.975	1766.46437
224.196	-761.87024
224.417	-29687.26127
224.637	-2368.08452
224.858	550.61039
225.079	3438.88983
225.3	1482.75521
225.521	3569.13748
225.741	-2420.68086
225.962	1588.49898
226.183	707.04205
226.404	1834.113
226.624	1768.22381
226.845	1397.80354
227.066	2328.83044
227.286	595.94331
227.507	373.67129
227.728	425.2333
227.948	543.73392
228.169	120.88141
228.389	121.58695
228.61	57.40033
228.831	87.90865
229.051	11.02657
229.272	45.37799
229.492	62.16327
229.713	24.20793
229.933	47.6156
230.154	41.53225
230.374	69.61476
230.595	52.46712
230.815	33.50823
231.036	55.73002
231.256	-6.26751
231.477	112.00191
231.697	65.39735
231.917	61.37801
232.138	82.79109
232.358	179.01916
232.579	183.97914
232.799	31.16783
233.019	170.6486
233.24	236.89076
233.46	64.77516
233.68	110.39345
233.901	99.89706
234.121	57.2332
234.341	26.37697
234.561	-3.63628
234.782	30.50745
235.002	120.76541
235.222	3.10594
235.442	94.98792
235.662	56.12567
235.883	100.88697
236.103	88.44919
236.323	74.50728
236.543	51.22267
236.763	65.18563
236.983	71.37913
237.203	78.55559
237.423	105.95606
237.643	149.43143
237.864	139.12665
238.084	32.38099
238.304	51.27079
238.524	88.68337
238.744	67.46005
238.964	115.08782
239.184	107.24327
239.404	105.44778
239.624	46.12033
239.843	99.79234
240.063	52.92557
240.283	39.01474
240.503	36.31214
240.723	35.69291
240.943	19.18377
241.163	28.0949
241.383	19.7254
241.603	9.10106
241.822	12.30017
242.042	9.53649
242.262	10.57053
242.482	12.54799
242.702	14.58376
242.921	4.15751
243.141	10.28503
243.361	8.98757
243.581	12.62255
243.8	11.11988
244.02	7.53754
244.24	14.07749
244.459	14.32829
244.679	27.43804
244.899	18.38143
245.118	21.27815
245.338	16.30771
245.558	20.04391
245.777	12.76238
245.997	13.67791
246.216	13.70892
246.436	7.22392
246.655	5.50709
246.875	4.12442
247.094	7.93857
247.314	2.87007
247.533	4.20287
247.753	6.29195
247.972	4.64477
248.192	1.93433
248.411	2.61627
248.631	5.53148
248.85	6.69754
249.07	5.33881
249.289	8.94809
249.508	6.82257
249.728	10.06336
249.947	10.83339
250.166	12.14206
250.386	7.08465
250.605	10.75863
250.824	14.06498
251.044	11.68292
251.263	36.79309
251.482	17.92612
251.701	17.28449
251.921	-0.41155
252.14	5.64219
252.359	6.8454
252.578	14.26547
252.798	5.35423
253.017	12.69552
253.236	6.69214
253.455	8.54633
253.674	15.67251
253.893	7.1323
254.112	10.67316
254.331	17.46371
254.551	13.75568
254.77	7.53952
254.989	20.76424
255.208	18.75527
255.427	21.64275
255.646	20.27724
255.865	32.61525
256.084	13.8313
256.303	13.95443
256.522	19.39524
256.741	4.46766
256.96	5.8573
257.179	12.22673
257.397	16.39363
257.616	8.7122
257.835	7.61578
258.054	22.09348
258.273	12.44815
258.492	16.09752
258.711	9.4504
258.93	3.98219
259.148	5.43559
259.367	5.83664
259.586	7.16487
259.805	3.11616
260.023	6.66957
260.242	5.11258
260.461	3.50464
260.68	2.13368
260.898	5.8995
261.117	2.37823
261.336	1.62089
261.554	5.4731
261.773	5.48841
261.992	0.98137
262.21	5.34702
262.429	6.58883
262.648	10.73653
262.866	11.51203
263.085	7.81213
263.303	6.72382
263.522	12.75772
263.74	12.98038
263.959	21.2466
264.178	11.09568
264.396	9.98167
264.615	6.98343
264.833	16.80959
265.051	14.90926
265.27	13.72772
265.488	14.95949
265.707	9.88455
265.925	15.17664
266.144	6.85017
266.362	8.62233
266.58	9.07894
266.799	6.72705
267.017	8.84013
267.235	7.33438
267.454	4.79163
267.672	2.45557
267.89	6.15811
268.109	6.63281
268.327	5.83242
268.545	1.61036
268.763	5.68414
268.982	2.1789
269.2	7.26204
269.418	4.20649
269.636	3.39942
269.854	6.50828
270.073	4.60593
270.291	2.90764
270.509	2.87193
270.727	6.15992
270.945	9.54548
271.163	10.18219
271.381	2.27592
271.599	3.89028
271.817	7.05167
272.036	2.86326
272.254	4.09911
272.472	3.57995
272.69	3.50581
272.908	3.34602
273.126	6.11498
273.344	7.31633
273.562	2.65318
273.779	3.81484
273.997	4.79463
274.215	5.65447
274.433	4.20404
274.651	6.44526
274.869	6.95059
275.087	4.47165
275.305	6.13081
275.523	3.12397
275.74	4.67677
275.958	7.43782
276.176	11.12332
276.394	3.29468
276.612	4.77716
276.829	4.73088
277.047	3.41451
277.265	4.20042
277.483	5.19551
277.7	5.70139
277.918	5.09031
278.136	8.68236
278.353	4.51409
278.571	2.39942
278.789	7.40027
279.006	1.69546
279.224	3.8386
279.442	7.10619
279.659	4.81544
279.877	3.77695
280.094	7.76008
280.312	1.56726
280.529	4.85974
280.747	1.26041
280.964	3.77839
281.182	9.0205
281.399	4.00116
281.617	5.68211
281.834	3.90197
282.052	2.943
282.269	4.22455
282.487	3.44012
282.704	2.71704
282.921	3.30952
283.139	4.28562
283.356	5.98216
283.574	4.90402
283.791	2.85051
284.008	7.40405
284.226	4.00938
284.443	4.46311
284.66	5.65937
284.877	4.87404
285.095	3.15645
285.312	2.17883
285.529	1.56738
285.746	1.36755
285.964	2.97579
286.181	1.7227
286.398	2.68961
286.615	3.73452
286.832	3.32481
287.05	1.24528
287.267	2.73475
287.484	2.92511
287.701	3.76573
287.918	3.77702
288.135	3.88592
288.352	2.0235
288.569	2.09887
288.786	3.71266
289.003	2.67802
289.22	3.61513
289.437	2.49472
289.654	4.10035
289.871	4.54483
290.088	4.11728
290.305	3.09431
290.522	2.37938
290.739	3.22788
290.956	4.15546
291.173	5.37722
291.39	4.93386
291.607	3.48802
291.824	2.75123
292.04	1.55201
292.257	4.07462
292.474	4.5557
292.691	2.87657
292.908	1.6535
293.125	2.69389
293.341	1.40214
293.558	7.16379
293.775	2.80286
293.992	3.03388
294.208	1.37399
294.425	1.79384
294.642	2.34016
294.858	3.8831
295.075	0.97185
295.292	2.73652
295.508	3.43309
295.725	5.39954
295.942	2.32363
296.158	1.98907
296.375	2.88898
296.591	2.14679
296.808	2.28408
297.024	2.73546
297.241	2.99138
297.458	3.23527
297.674	0.29151
297.891	2.58939
298.107	1.96521
298.323	1.3799
298.54	3.81946
298.756	1.79156
298.973	0.61078
299.189	3.91516
299.406	1.74831
299.622	4.06224
299.838	3.95828
300.055	3.70303
300.271	1.20981
300.487	1.27274
300.704	1.70899
300.92	1.08941
301.136	5.38794
301.353	3.86985
301.569	2.85965
301.785	3.44797
302.001	3.80436
302.218	3.35479
302.434	3.00325
302.65	1.04923
302.866	2.17098
303.083	5.27039
303.299	5.01695
303.515	2.72563
303.731	2.86056
303.947	1.19155
304.163	1.70675
304.379	3.17155
304.595	3.67035
304.812	1.75669
305.028	1.79398
305.244	2.47387
305.46	3.53055
305.676	3.82904
305.892	4.50542
306.108	2.74363
306.324	2.05207
306.54	5.0863
306.756	3.57257
306.972	3.56022
307.187	2.49226
307.403	4.94538
307.619	2.08014
307.835	4.11765
308.051	4.71592
308.267	1.18379
308.483	4.03245
308.699	3.40835
308.914	2.78407
309.13	2.4183
309.346	0.69306
309.562	1.30694
309.778	0.91848
309.993	3.40447
310.209	2.58392
310.425	1.11102
310.641	2.25853
310.856	1.17979
311.072	1.27109
311.288	2.57005
311.503	2.74069
311.719	0.50366
311.935	0.50928
312.15	3.04842
312.366	2.60623
312.581	3.30938
312.797	2.63021
313.013	3.43414
313.228	1.96171
313.444	2.87925
313.659	1.93806
313.875	3.12051
314.09	2.28414
314.306	4.01821
314.521	3.55787
314.737	3.30574
314.952	3.05186
315.168	2.50468
315.383	3.53992
315.599	2.21388
315.814	2.19232
316.029	3.402
316.245	0.91245
316.46	0.95253
316.675	4.22852
316.891	5.14355
317.106	6.32221
317.321	3.72041
317.537	3.28953
317.752	3.6513
317.967	3.60337
318.183	1.85626
318.398	2.26973
318.613	3.95221
318.828	4.74275
319.043	3.6727
319.259	2.24566
319.474	3.46781
319.689	4.10009
319.904	0.72619
320.119	3.76259
320.334	3.19391
320.549	2.44019
320.765	4.4849
320.98	3.11061
321.195	4.11594
321.41	2.31143
321.625	3.99668
321.84	4.88452
322.055	5.33659
322.27	1.87769
322.485	1.57258
322.7	2.96023
322.915	4.10155
323.13	1.69763
323.345	4.58453
323.56	3.19305
323.775	3.65399
323.989	3.52676
324.204	2.8659
324.419	3.92692
324.634	1.31248
324.849	2.60004
325.064	5.90561
325.279	4.04602
325.493	3.7292
325.708	4.07318
325.923	1.73501
326.138	1.87313
326.352	4.75067
326.567	3.8762
326.782	2.452
326.997	1.7405
327.211	3.31699
327.426	3.55451
327.641	2.55434
327.855	0.99432
328.07	3.59303
328.285	5.05812
328.499	2.48393
328.714	3.57023
328.928	4.12436
329.143	2.87748
329.358	4.13165
329.572	4.04082
329.787	4.46918
330.001	5.95528
330.216	0.8644
330.43	4.98003
330.645	4.97683
330.859	4.0471
331.074	2.19205
331.288	3.1414
331.503	4.78773
331.717	1.33173
331.931	2.96348
332.146	2.8918
332.36	4.93008
332.575	3.61586
332.789	3.25506
333.003	2.5993
333.218	3.80448
333.432	2.27773
333.646	3.73815
333.86	4.69079
334.075	4.77683
334.289	2.37672
334.503	1.91366
334.717	3.70149
334.932	3.53492
335.146	4.55505
335.36	2.8499
335.574	3.57649
335.788	3.63641
336.003	4.36774
336.217	3.88746
336.431	3.56909
336.645	2.01749
336.859	1.32468
337.073	2.65657
337.287	3.30885
337.501	1.54934
337.715	2.94697
337.929	3.80736
338.143	1.59303
338.357	2.8009
338.571	1.68904
338.785	3.24067
338.999	2.23618
339.213	2.43497
339.427	1.13656
339.641	4.27277
339.855	2.6069
340.069	2.24397
340.283	4.0083
340.497	5.07665
340.711	3.192
340.924	2.06639
341.138	1.48967
341.352	1.22239
341.566	3.09101
341.78	1.02412
341.993	1.97871
342.207	1.53353
342.421	3.07671
342.635	2.816
342.848	2.00324
343.062	0.4519
343.276	1.88632
343.49	5.37102
343.703	1.85997
343.917	3.47165
344.131	3.80968
344.344	1.87051
344.558	2.13099
344.771	1.68859
344.985	4.35797
345.199	4.44093
345.412	3.00369
345.626	3.07274
345.839	0.88411
346.053	1.30229
346.266	1.48387
346.48	3.6588
346.693	3.10694
346.907	3.3037
347.12	1.64212
347.334	3.20397
347.547	3.19562
347.76	2.69343
347.974	4.02646
348.187	3.12594
348.401	2.27949
348.614	2.21344
348.827	2.56249
349.041	3.55825
349.254	1.06824
349.467	2.5434
349.681	1.24639
349.894	1.88138
350.107	4.09738
350.32	4.3515
350.534	0.78022
350.747	2.24069
350.96	1.72565
351.173	1.92568
351.386	2.32958
351.6	2.01683
351.813	1.87967
352.026	2.6953
352.239	1.3003
352.452	2.02348
352.665	3.31679
352.878	2.22781
353.092	5.13859
353.305	3.10259
353.518	2.90189
353.731	1.73001
353.944	3.98467
354.157	1.56615
354.37	1.56078
354.583	1.29639
354.796	0.78574
355.009	3.9259
355.222	2.499
355.435	2.55177
355.647	3.71746
355.86	1.27949
356.073	2.55611
356.286	1.91518
356.499	3.17894
356.712	2.50269
356.925	2.89419
357.138	3.50957
357.35	1.31125
357.563	1.9108
357.776	2.49653
357.989	2.03729
358.201	2.88943
358.414	2.43279
358.627	3.75304
358.84	1.89504
359.052	1.38898
359.265	1.18742
359.478	3.60494
359.69	-0.39956
359.903	2.80934
360.116	3.19449
360.328	0.58988
360.541	3.2781
360.753	1.30601
360.966	1.44364
361.179	1.71751
361.391	1.63927
361.604	1.07292
361.816	1.55084
362.029	1.49138
362.241	1.3372
362.454	1.5769
362.666	1.21508
362.879	2.19587
363.091	1.97269
363.304	1.27431
363.516	1.85328
363.728	1.01545
363.941	2.6581
364.153	1.66254
364.366	-0.0172
364.578	1.02984
364.79	2.75047
365.003	2.07611
365.215	1.71258
365.427	2.7717
365.639	3.35854
365.852	2.45487
366.064	4.18241
366.276	1.64067
366.488	2.53431
366.701	1.7061
366.913	1.96713
367.125	1.79553
367.337	1.81516
367.549	1.63795
367.762	2.15903
367.974	2.30294
368.186	1.5757
368.398	3.23639
368.61	2.91675
368.822	2.64841
369.034	2.04538
369.246	2.91794
369.458	4.68246
369.67	1.1485
369.882	3.93034
370.094	0.26044
370.306	3.88234
370.518	1.86019
370.73	1.34083
370.942	1.37709
371.154	1.93049
371.366	1.64344
371.578	2.42803
371.79	1.454
372.002	3.39542
372.214	4.02232
372.425	2.22638
372.637	3.50128
372.849	2.37931
373.061	0.06566
373.273	2.6013
373.484	2.71443
373.696	3.18475
373.908	0.02742
374.12	3.18661
374.331	2.76471
374.543	1.41446
374.755	1.26637
374.967	2.15707
375.178	3.15815
375.39	2.28031
375.602	2.23416
375.813	1.10424
376.025	0.99171
376.236	2.16305
376.448	2.32479
376.66	1.8441
376.871	1.90707
377.083	3.20304
377.294	3.70758
377.506	1.82048
377.717	3.37704
377.929	2.34377
378.14	1.59912
378.352	2.91836
378.563	2.92855
378.775	3.63382
378.986	1.40148
379.197	2.24248
379.409	1.71769
379.62	3.23203
379.832	2.70325
380.043	2.14362
380.254	2.57249
380.466	1.18357
380.677	5.05249
380.888	4.36298
381.1	4.89491
381.311	4.69787
381.522	2.67276
381.733	5.27841
381.945	2.20015
382.156	2.35048
382.367	2.14489
382.578	5.37274
382.789	5.54522
383.001	2.0001
383.212	4.12221
383.423	4.39699
383.634	3.58033
383.845	3.29191
384.056	2.09703
384.267	2.60961
384.478	2.55778
384.69	1.46224
384.901	3.32947
385.112	2.99239
385.323	4.48071
385.534	3.16853
385.745	3.14907
385.956	3.02157
386.167	1.7527
386.378	3.39324
386.588	2.00037
386.799	1.92435
387.01	1.38998
387.221	3.75125
387.432	3.01747
387.643	4.67158
387.854	2.90611
388.065	2.64287
388.275	2.72916
388.486	2.36005
388.697	2.7707
388.908	2.73266
389.119	4.14472
389.329	4.49841
389.54	3.00677
389.751	3.54663
389.962	4.30872
390.172	3.06648
390.383	2.9224
390.594	2.44481
390.804	2.32919
391.015	2.77041
391.226	3.33196
391.436	3.91838
391.647	3.70039
391.858	3.97136
392.068	1.84065
392.279	2.42981
392.489	3.74067
392.7	4.24797
392.91	2.68538
393.121	2.82238
393.331	3.91557
393.542	4.51205
393.752	4.04742
393.963	3.95061
394.173	3.76076
394.384	4.21631
394.594	3.71012
394.804	2.54086
395.015	3.54671
395.225	4.1815
395.436	3.01556
395.646	4.3481
395.856	3.24422
396.067	2.60672
396.277	4.58603
396.487	4.25279
396.697	4.25517
396.908	4.6571
397.118	4.27811
397.328	4.01937
397.538	4.61958
397.749	3.29962
397.959	4.89786
398.169	4.58756
398.379	2.56215
398.589	4.22744
398.8	4.55869
399.01	4.26958
399.22	3.91011
399.43	6.09733
399.64	4.07
399.85	4.7501
400.06	4.21192
400.27	3.51018
400.48	3.90881
400.69	5.30393
400.9	3.7915
401.11	3.53695
401.32	4.975
401.53	3.65024
401.74	5.64725
401.95	5.0302
402.16	4.08808
402.37	4.87046
402.58	3.92623
402.79	4.78881
403	5.0364
403.209	3.91007
403.419	5.31069
403.629	3.85142
403.839	5.62467
404.049	5.49713
404.258	4.15246
404.468	4.13164
404.678	5.40925
404.888	5.82482
405.097	4.66583
405.307	4.87052
405.517	5.49876
405.727	5.23773
405.936	4.38661
406.146	5.30429
406.356	6.14766
406.565	4.92361
406.775	4.58373
406.984	4.62353
407.194	6.66727
407.404	5.05211
407.613	5.49215
407.823	5.77432
408.032	6.20117
408.242	5.87683
408.451	4.58817
408.661	5.09657
408.87	6.73349
409.08	4.34212
409.289	5.52637
409.499	5.37009
409.708	5.0802
409.918	3.4127
410.127	5.59897
410.336	6.64093
410.546	6.28165
410.755	4.95103
410.964	4.92456
411.174	4.30894
411.383	5.6164
411.592	5.61529
411.802	4.68792
412.011	6.10176
412.22	5.22787
412.429	6.38048
412.639	6.56232
412.848	6.48244
413.057	7.05475
413.266	6.34595
413.475	5.56396
413.685	6.27537
413.894	6.39833
414.103	6.51729
414.312	6.25272
414.521	5.55223
414.73	5.62493
414.939	7.33738
415.148	6.05245
415.357	5.93639
415.566	5.8265
415.776	5.57396
415.985	5.52765
416.194	6.5768
416.403	7.48381
416.611	4.90171
416.82	5.56643
417.029	6.30396
417.238	5.59075
417.447	5.63967
417.656	6.02527
417.865	5.58088
418.074	6.09386
418.283	6.48625
418.492	7.30721
418.7	7.07966
418.909	7.98382
419.118	6.59416
419.327	7.06576
419.536	6.77398
419.744	6.59731
419.953	7.81399
420.162	7.98701
420.371	6.88156
420.579	7.36439
420.788	8.27873
420.997	8.61727
421.205	8.6163
421.414	8.31705
421.623	8.66229
421.831	7.92761
422.04	8.7236
422.249	7.68145
422.457	8.12155
422.666	7.29406
422.874	8.546
423.083	8.38194
423.291	8.32001
423.5	8.18386
423.708	8.56133
423.917	9.25755
424.125	8.35841
424.334	8.21209
424.542	10.15538
424.751	9.2774
424.959	8.98958
425.167	9.46083
425.376	9.12834
425.584	8.15651
425.793	8.22923
426.001	7.05875
426.209	8.17162
426.418	7.06376
