Data from WindowProjectSample_Transmission__45__00045__07269552173137898.txt Node

Date: Mon May 05 18:01:45 EDT 2025
User: jessi
Spectrometer: SR400872
Trigger mode: 0
Integration Time (sec): 5.000010E-1
Scans to average: 20
Electric dark correction enabled: true
Nonlinearity correction enabled: true
Boxcar width: 0
XAxis mode: Wavelengths
Number of Pixels in Spectrum: 3648
>>>>>Begin Spectral Data<<<<<
184.909	21127.90748
185.132	-5361.51344
185.355	-3102.57886
185.578	-18825.4902
185.801	1888.04522
186.024	10763.20528
186.247	-1802.14265
186.47	1081.44814
186.693	381.3444
186.916	361.20468
187.139	-3790.22134
187.362	3622.09039
187.585	4478.51725
187.808	3614.60914
188.031	-11.16191
188.254	-51493.10827
188.476	-544.92686
188.699	6344.69528
188.922	682.81588
189.145	-15686.94306
189.368	-635.40295
189.591	-1750.20145
189.813	3357.30793
190.036	-50108.68209
190.259	-977.3161
190.482	-4230.97163
190.705	7399.31553
190.927	-2552.73767
191.15	13595.7282
191.373	3565.7044
191.595	-9176.86444
191.818	-4287.99688
192.041	-6782.05879
192.263	-3503.86867
192.486	-905.67408
192.709	-4112.6617
192.931	8146.14382
193.154	-29616.70096
193.377	-3047.52359
193.599	-2651.9588
193.822	-10167.29255
194.044	-1936.78729
194.267	1130.26466
194.489	447.13234
194.712	-45563.89684
194.934	-33130.41622
195.157	1194.7286
195.379	1377.00289
195.602	-7147.51248
195.824	-1411.96317
196.047	-8945.20755
196.269	2748.71967
196.492	-6505.24952
196.714	30936.4901
196.936	-9004.81918
197.159	-1228.05764
197.381	1280.93993
197.604	536.77932
197.826	12478.42372
198.048	-11243.96217
198.271	-2917.54616
198.493	7823.74126
198.715	2421.81638
198.938	-575.31282
199.16	7446.06897
199.382	-106037.93842
199.604	2842.09339
199.827	-1162.6075
200.049	-2924.63011
200.271	15611.40256
200.493	1297.07726
200.715	-39904.91816
200.938	-6341.87512
201.16	-4365.86475
201.382	21575.96013
201.604	2450.7568
201.826	2332.73932
202.048	-1987.96491
202.27	-1983.29327
202.492	-37523.86308
202.715	2900.16986
202.937	-4731.45671
203.159	-6443.31753
203.381	1564.66462
203.603	7264.25328
203.825	7214.83586
204.047	2298.03567
204.269	-2887.95973
204.491	2342.69419
204.713	6028.69583
204.935	-509340.27795
205.156	1182.50499
205.378	-3072.86334
205.6	1749.18109
205.822	161866.17552
206.044	-877.50744
206.266	1661.00012
206.488	4879.32703
206.71	-5488.87705
206.932	1084.20863
207.153	12944.12463
207.375	-7141.51502
207.597	-39485.23956
207.819	-2854.04094
208.041	2559.56031
208.262	504.50415
208.484	737.08522
208.706	-893.28355
208.927	-868.62922
209.149	602.76343
209.371	-2936.70002
209.593	-311.95406
209.814	-866.88644
210.036	593.9995
210.258	-663.1972
210.479	1897.36448
210.701	1638.78036
210.922	3567.02595
211.144	-4155.15105
211.366	2209.40569
211.587	8115.72037
211.809	-8314.88026
212.03	2555.58061
212.252	486.69609
212.473	2183.70485
212.695	-5752.49168
212.916	2968.4717
213.138	-748.7322
213.359	3818.56881
213.581	5493.00088
213.802	-937.76684
214.024	1208.93398
214.245	2105.80877
214.466	3529.35624
214.688	-3124.47934
214.909	-1283.35548
215.131	-1818.55279
215.352	-3365.15702
215.573	15515.78171
215.795	5262.70581
216.016	5595.17132
216.237	902.86738
216.459	3570.24426
216.68	1859.68439
216.901	5184.41979
217.122	-3168.07323
217.344	-12397.34253
217.565	3606.73141
217.786	9023.10259
218.007	16452.73068
218.228	-790.89118
218.45	5806.71637
218.671	833.82499
218.892	39233.51423
219.113	1688.25068
219.334	-345.32513
219.555	9375.67679
219.776	3151.94023
219.997	23058.67798
220.219	2836.2904
220.44	-11745.05395
220.661	465.97768
220.882	1510.40839
221.103	-1133.37496
221.324	2278.11276
221.545	2357.6919
221.766	-9492.53601
221.987	948.22669
222.208	1749.07766
222.429	4379.48313
222.65	234.3572
222.87	19018.76889
223.091	727.88339
223.312	637.82624
223.533	1435.9526
223.754	1537.74653
223.975	1466.86364
224.196	1953.8625
224.417	1354.06182
224.637	627.32253
224.858	89.51992
225.079	1097.59453
225.3	683.9779
225.521	3832.16087
225.741	485.76417
225.962	523.85618
226.183	136.78802
226.404	689.03594
226.624	440.6219
226.845	698.17845
227.066	414.82867
227.286	270.27377
227.507	131.40864
227.728	118.5241
227.948	245.49471
228.169	78.1684
228.389	85.93704
228.61	49.41945
228.831	66.33078
229.051	1.49875
229.272	40.20782
229.492	58.88908
229.713	15.10868
229.933	39.87274
230.154	33.5207
230.374	56.52272
230.595	39.63378
230.815	23.81822
231.036	39.09585
231.256	-7.50287
231.477	72.8321
231.697	39.67955
231.917	42.02814
232.138	57.61845
232.358	110.57445
232.579	106.92267
232.799	18.92355
233.019	99.04312
233.24	115.03481
233.46	43.04117
233.68	65.45717
233.901	45.28136
234.121	24.03409
234.341	13.99566
234.561	-3.74624
234.782	23.71078
235.002	68.78867
235.222	-2.18322
235.442	69.25042
235.662	31.65095
235.883	65.27649
236.103	53.18406
236.323	40.06053
236.543	30.23758
236.763	41.47953
236.983	45.74549
237.203	40.58673
237.423	65.18563
237.643	91.33392
237.864	76.8977
238.084	19.66531
238.304	29.44393
238.524	42.70013
238.744	41.24812
238.964	76.17521
239.184	62.57713
239.404	64.70672
239.624	34.94608
239.843	63.70613
240.063	37.05247
240.283	24.08085
240.503	25.94344
240.723	24.78736
240.943	14.97784
241.163	21.18704
241.383	14.60148
241.603	7.25636
241.822	10.33014
242.042	6.55504
242.262	8.84815
242.482	9.96135
242.702	11.25989
242.921	2.85179
243.141	7.00802
243.361	6.46927
243.581	9.48482
243.8	8.04602
244.02	5.15192
244.24	9.59304
244.459	8.97518
244.679	18.2467
244.899	11.75233
245.118	13.82764
245.338	12.53978
245.558	13.95515
245.777	8.5746
245.997	10.75259
246.216	11.25813
246.436	6.2205
246.655	4.83388
246.875	3.32248
247.094	6.49557
247.314	2.15133
247.533	3.6399
247.753	4.50572
247.972	3.50998
248.192	1.2256
248.411	2.0097
248.631	3.73626
248.85	4.53621
249.07	4.00766
249.289	6.05647
249.508	5.21579
249.728	7.92368
249.947	7.22942
250.166	9.40606
250.386	4.68526
250.605	7.29149
250.824	11.48416
251.044	8.04609
251.263	29.50115
251.482	15.49503
251.701	12.4077
251.921	-0.42017
252.14	3.57479
252.359	3.9609
252.578	10.31819
252.798	3.51547
253.017	9.28782
253.236	4.173
253.455	5.71368
253.674	10.87131
253.893	4.84581
254.112	8.3002
254.331	11.9736
254.551	9.01652
254.77	3.83054
254.989	14.21447
255.208	10.92276
255.427	15.34902
255.646	12.94958
255.865	22.8799
256.084	9.54063
256.303	10.92825
256.522	14.8045
256.741	2.96179
256.96	4.2165
257.179	7.47636
257.397	10.83569
257.616	5.91212
257.835	6.22663
258.054	15.82929
258.273	11.13814
258.492	11.20931
258.711	6.73464
258.93	3.25038
259.148	4.97555
259.367	4.73583
259.586	5.73263
259.805	2.50697
260.023	5.30846
260.242	3.98514
260.461	2.92293
260.68	1.46663
260.898	4.76921
261.117	1.50593
261.336	1.09101
261.554	3.37903
261.773	3.54298
261.992	0.71299
262.21	3.29318
262.429	3.63023
262.648	7.48471
262.866	8.2408
263.085	6.19707
263.303	4.71273
263.522	9.01135
263.74	8.81251
263.959	15.85511
264.178	7.24895
264.396	7.06603
264.615	4.42695
264.833	10.90784
265.051	9.56905
265.27	11.10046
265.488	11.40022
265.707	6.55139
265.925	11.44081
266.144	4.64981
266.362	5.64443
266.58	5.7756
266.799	5.07016
267.017	6.12947
267.235	5.26863
267.454	3.41902
267.672	1.84355
267.89	4.41005
268.109	4.47339
268.327	4.36536
268.545	1.13764
268.763	4.13776
268.982	1.57159
269.2	4.23083
269.418	3.13211
269.636	1.78931
269.854	4.76798
270.073	3.03392
270.291	1.9716
270.509	1.96424
270.727	4.52191
270.945	7.5219
271.163	7.38412
271.381	1.52708
271.599	3.3368
271.817	5.47413
272.036	1.90243
272.254	3.18716
272.472	2.36053
272.69	2.64514
272.908	2.41377
273.126	4.58323
273.344	5.65419
273.562	1.82706
273.779	2.70936
273.997	3.88836
274.215	4.30666
274.433	2.90387
274.651	4.57898
274.869	4.98626
275.087	2.91391
275.305	4.24519
275.523	2.44899
275.74	3.10629
275.958	5.57486
276.176	8.39999
276.394	2.42759
276.612	3.22995
276.829	3.46334
277.047	2.88859
277.265	3.0398
277.483	3.56831
277.7	4.38813
277.918	3.56631
278.136	6.5988
278.353	2.96763
278.571	1.62628
278.789	4.58335
279.006	0.66075
279.224	2.95355
279.442	5.36502
279.659	3.43294
279.877	2.54203
280.094	6.23499
280.312	1.01408
280.529	3.41952
280.747	1.09483
280.964	2.85488
281.182	6.24581
281.399	2.84431
281.617	3.95928
281.834	2.62395
282.052	1.99621
282.269	3.31261
282.487	2.54302
282.704	2.21965
282.921	2.3951
283.139	3.46313
283.356	4.02092
283.574	4.023
283.791	1.95878
284.008	5.99172
284.226	3.03999
284.443	3.47936
284.66	4.4665
284.877	3.59578
285.095	2.18722
285.312	1.61266
285.529	0.80512
285.746	0.8016
285.964	2.21902
286.181	1.36341
286.398	2.04133
286.615	2.71558
286.832	2.6304
287.05	0.68494
287.267	1.8804
287.484	1.91247
287.701	2.70821
287.918	2.66995
288.135	2.78053
288.352	1.30287
288.569	1.51717
288.786	2.5685
289.003	2.1238
289.22	3.04751
289.437	1.67154
289.654	2.95664
289.871	3.12306
290.088	3.02717
290.305	2.42051
290.522	1.88411
290.739	2.11091
290.956	3.25158
291.173	3.66831
291.39	3.56228
291.607	2.45823
291.824	1.82195
292.04	1.30933
292.257	2.96065
292.474	3.32778
292.691	1.99932
292.908	1.00918
293.125	1.70606
293.341	1.14884
293.558	5.10184
293.775	1.99375
293.992	2.07843
294.208	0.78463
294.425	1.38449
294.642	2.00614
294.858	2.69707
295.075	0.69304
295.292	2.11671
295.508	2.53901
295.725	4.19082
295.942	1.79643
296.158	1.437
296.375	2.11639
296.591	1.56075
296.808	1.90521
297.024	2.17113
297.241	2.41048
297.458	2.71437
297.674	0.33228
297.891	2.07947
298.107	1.7426
298.323	1.34056
298.54	3.36627
298.756	1.57452
298.973	0.97271
299.189	3.54559
299.406	1.57706
299.622	3.19585
299.838	3.31577
300.055	3.0944
300.271	1.10392
300.487	1.483
300.704	1.88691
300.92	1.18826
301.136	4.81304
301.353	3.1579
301.569	2.45166
301.785	2.74324
302.001	3.30769
302.218	2.81201
302.434	2.90308
302.65	1.42795
302.866	2.14236
303.083	4.60375
303.299	4.69256
303.515	2.71964
303.731	3.00479
303.947	1.34468
304.163	2.07933
304.379	2.95372
304.595	3.21613
304.812	1.95009
305.028	2.02251
305.244	2.57897
305.46	3.48569
305.676	3.54245
305.892	3.94786
306.108	3.31862
306.324	2.38449
306.54	4.56976
306.756	3.33328
306.972	3.35689
307.187	2.69929
307.403	4.08082
307.619	2.35828
307.835	3.95601
308.051	4.47485
308.267	1.89988
308.483	3.91715
308.699	3.39749
308.914	2.88839
309.13	2.76006
309.346	1.59683
309.562	1.86111
309.778	1.67824
309.993	3.41927
310.209	2.94271
310.425	1.86613
310.641	2.76631
310.856	2.10644
311.072	2.02566
311.288	2.79937
311.503	3.00645
311.719	1.41555
311.935	1.32792
312.15	3.43659
312.366	2.97715
312.581	3.34217
312.797	2.95125
313.013	3.71641
313.228	2.36264
313.444	2.80845
313.659	2.44288
313.875	3.51771
314.09	2.7167
314.306	4.39965
314.521	3.63363
314.737	3.75615
314.952	2.86979
315.168	3.01364
315.383	3.41736
315.599	2.69332
315.814	2.82716
316.029	3.61603
316.245	2.0387
316.46	1.57725
316.675	4.1639
316.891	4.57935
317.106	5.81831
317.321	3.30479
317.537	3.69615
317.752	3.84343
317.967	3.84587
318.183	2.23807
318.398	2.76353
318.613	4.10067
318.828	4.51974
319.043	3.92481
319.259	2.86629
319.474	3.39406
319.689	4.34641
319.904	1.72181
320.119	3.97962
320.334	3.45318
320.549	3.14526
320.765	4.24771
320.98	3.43287
321.195	3.71418
321.41	3.22374
321.625	3.99401
321.84	4.88834
322.055	4.83447
322.27	2.62323
322.485	2.1785
322.7	3.62694
322.915	4.02954
323.13	2.5997
323.345	4.65835
323.56	4.31504
323.775	3.86564
323.989	3.69359
324.204	3.47689
324.419	4.37857
324.634	2.17916
324.849	3.1508
325.064	6.42796
325.279	4.33547
325.493	3.7951
325.708	4.08061
325.923	2.76809
326.138	2.92656
326.352	4.85674
326.567	4.19582
326.782	2.96859
326.997	2.80333
327.211	3.90491
327.426	3.78758
327.641	3.18451
327.855	2.02225
328.07	3.99022
328.285	5.15242
328.499	3.04072
328.714	3.71256
328.928	3.92644
329.143	3.34197
329.358	4.53409
329.572	4.56578
329.787	4.86608
330.001	5.90324
330.216	2.43416
330.43	5.53901
330.645	4.96254
330.859	4.34328
331.074	2.86569
331.288	3.67657
331.503	4.90613
331.717	2.63376
331.931	3.80545
332.146	3.87933
332.36	5.45582
332.575	3.9671
332.789	3.80622
333.003	3.93992
333.218	4.14414
333.432	3.13286
333.646	4.61823
333.86	5.30397
334.075	5.2497
334.289	3.31314
334.503	2.81052
334.717	4.28943
334.932	4.19475
335.146	4.57199
335.36	3.28622
335.574	4.30985
335.788	4.34598
336.003	4.71977
336.217	4.43646
336.431	4.37854
336.645	3.45531
336.859	2.90814
337.073	3.79298
337.287	4.20099
337.501	2.72046
337.715	4.45169
337.929	4.63633
338.143	2.91338
338.357	3.70109
338.571	3.39628
338.785	4.58741
338.999	3.5773
339.213	3.50443
339.427	2.93585
339.641	5.28709
339.855	3.62795
340.069	3.41507
340.283	4.89887
340.497	5.6326
340.711	4.48018
340.924	4.15685
341.138	3.22146
341.352	3.01321
341.566	4.21968
341.78	2.94699
341.993	3.67087
342.207	3.36079
342.421	4.30909
342.635	3.94787
342.848	3.85114
343.062	2.25735
343.276	3.62981
343.49	5.89896
343.703	3.6319
343.917	5.15508
344.131	5.20782
344.344	3.63129
344.558	3.9567
344.771	3.13773
344.985	5.54941
345.199	5.68434
345.412	4.55075
345.626	4.58317
345.839	2.79305
346.053	3.14532
346.266	3.43778
346.48	4.94913
346.693	4.57995
346.907	4.57742
347.12	3.49384
347.334	4.53552
347.547	4.56489
347.76	4.01746
347.974	5.2969
348.187	4.4798
348.401	4.10443
348.614	3.73067
348.827	4.13444
349.041	4.87149
349.254	2.98616
349.467	3.95005
349.681	3.48694
349.894	3.72399
350.107	5.50271
350.32	6.0581
350.534	3.30862
350.747	4.05133
350.96	3.68568
351.173	3.8706
351.386	4.13082
351.6	3.98753
351.813	4.12375
352.026	4.0955
352.239	3.49345
352.452	3.81173
352.665	5.37658
352.878	4.33102
353.092	6.17069
353.305	5.15667
353.518	4.68825
353.731	3.66958
353.944	5.50824
354.157	4.1572
354.37	3.93461
354.583	3.62668
354.796	3.33153
355.009	5.34857
355.222	4.80078
355.435	4.59838
355.647	5.52362
355.86	3.95736
356.073	4.69445
356.286	4.18407
356.499	5.29768
356.712	5.10418
356.925	5.1971
357.138	5.35525
357.35	4.04958
357.563	4.41772
357.776	4.75082
357.989	4.64184
358.201	5.19088
358.414	4.99256
358.627	5.8179
358.84	4.61312
359.052	3.91748
359.265	4.11058
359.478	5.61322
359.69	2.93368
359.903	5.44475
360.116	5.59103
360.328	3.68923
360.541	5.43121
360.753	4.27686
360.966	4.56371
361.179	4.85344
361.391	4.63272
361.604	4.60806
361.816	4.63334
362.029	4.71224
362.241	4.3918
362.454	4.68726
362.666	4.36121
362.879	5.33775
363.091	4.70723
363.304	4.48449
363.516	4.72324
363.728	4.16463
363.941	5.18217
364.153	4.9792
364.366	3.36192
364.578	4.15052
364.79	5.11501
365.003	5.01214
365.215	4.3827
365.427	5.40612
365.639	5.67347
365.852	5.00307
366.064	6.50143
366.276	4.6029
366.488	5.13631
366.701	4.61844
366.913	4.72842
367.125	4.77224
367.337	4.27988
367.549	4.48758
367.762	4.95199
367.974	4.956
368.186	4.5382
368.398	5.51476
368.61	5.21071
368.822	5.43498
369.034	4.6373
369.246	5.55405
369.458	7.14206
369.67	4.33661
369.882	6.26217
370.094	3.49043
370.306	6.07961
370.518	4.65274
370.73	4.56047
370.942	4.57113
371.154	4.92572
371.366	4.65633
371.578	5.2099
371.79	4.75373
372.002	5.83897
372.214	6.56912
372.425	4.96148
372.637	6.14327
372.849	5.45658
373.061	3.51224
373.273	5.3587
373.484	5.2683
373.696	5.69679
373.908	3.52066
374.12	5.79879
374.331	5.46894
374.543	4.52382
374.755	4.42243
374.967	5.21137
375.178	5.64665
375.39	4.76076
375.602	5.16466
375.813	4.01686
376.025	4.45363
376.236	5.29674
376.448	5.49647
376.66	4.95261
376.871	5.02593
377.083	6.01746
377.294	6.39084
377.506	4.99473
377.717	6.17771
377.929	5.39757
378.14	4.98192
378.352	5.46498
378.563	5.64418
378.775	6.17975
378.986	4.5455
379.197	5.26231
379.409	4.66614
379.62	5.65754
379.832	5.5247
380.043	5.02445
380.254	5.40615
380.466	4.3593
380.677	7.20567
380.888	6.63972
381.1	7.09396
381.311	7.09566
381.522	5.48816
381.733	7.31936
381.945	5.1149
382.156	5.18881
382.367	4.93706
382.578	7.30299
382.789	7.25649
383.001	4.8689
383.212	6.53559
383.423	6.45727
383.634	6.2584
383.845	5.95755
384.056	5.11626
384.267	5.46085
384.478	5.44738
384.69	4.71012
384.901	5.73618
385.112	5.61935
385.323	6.72242
385.534	5.82173
385.745	5.69064
385.956	5.66984
386.167	4.87874
386.378	5.84428
386.588	4.93023
386.799	5.044
387.01	4.51649
387.221	6.06416
387.432	5.5591
387.643	6.62295
387.854	5.28716
388.065	5.26171
388.275	5.47299
388.486	5.09694
388.697	5.37098
388.908	5.08856
389.119	6.3236
389.329	6.38726
389.54	5.63033
389.751	5.7328
389.962	6.476
390.172	5.65959
390.383	5.36147
390.594	4.99701
390.804	5.11898
391.015	5.17902
391.226	5.72995
391.436	5.88402
391.647	5.89656
391.858	5.99111
392.068	4.61312
392.279	5.01135
392.489	5.81704
392.7	6.31579
392.91	5.16016
393.121	5.19205
393.331	5.92881
393.542	6.47191
393.752	5.97861
393.963	6.01367
394.173	5.90696
394.384	6.06321
394.594	5.70495
394.804	4.99877
395.015	5.75379
395.225	6.08377
395.436	5.05864
395.646	5.98148
395.856	5.3671
396.067	4.72385
396.277	6.2695
396.487	5.88983
396.697	5.86825
396.908	6.02699
397.118	6.00217
397.328	5.7162
397.538	6.28802
397.749	5.21446
397.959	6.25619
398.169	6.09287
398.379	4.79365
398.589	6.019
398.8	5.84518
399.01	5.75418
399.22	5.5178
399.43	7.09661
399.64	5.63453
399.85	6.06967
400.06	5.8423
400.27	5.16038
400.48	5.66673
400.69	6.66004
400.9	5.44137
401.11	5.02364
401.32	6.08764
401.53	5.28263
401.74	6.74304
401.95	6.03885
402.16	5.27424
402.37	6.0192
402.58	5.46129
402.79	6.04368
403	6.52274
403.209	5.40823
403.419	6.50317
403.629	5.20252
403.839	6.52382
404.049	6.36462
404.258	5.62889
404.468	5.27944
404.678	6.07368
404.888	6.62859
405.097	5.55722
405.307	5.76888
405.517	6.36872
405.727	6.09409
405.936	5.67525
406.146	6.0486
406.356	6.69069
406.565	5.7905
406.775	5.64149
406.984	5.55265
407.194	7.02801
407.404	5.81198
407.613	6.24014
407.823	6.29479
408.032	6.53223
408.242	6.49415
408.451	5.52506
408.661	5.84302
408.87	6.89876
409.08	5.41904
409.289	6.14845
409.499	6.03329
409.708	5.93971
409.918	4.71444
410.127	6.0745
410.336	6.9453
410.546	6.42661
410.755	5.67766
410.964	5.78522
411.174	5.45296
411.383	6.18469
411.592	6.2976
411.802	5.4131
412.011	6.42148
412.22	5.74007
412.429	7.08274
412.639	6.88397
412.848	6.51777
413.057	6.9578
413.266	6.78044
413.475	5.95694
413.685	6.38409
413.894	6.66835
414.103	6.85234
414.312	6.57515
414.521	6.05312
414.73	6.18938
414.939	7.46546
415.148	6.53302
415.357	6.29744
415.566	6.15874
415.776	5.9404
415.985	6.11811
416.194	6.84108
416.403	7.55726
416.611	5.7306
416.82	6.1326
417.029	6.58003
417.238	6.14526
417.447	5.99982
417.656	6.4152
417.865	6.18461
418.074	6.42214
418.283	6.60272
418.492	7.20391
418.7	7.00876
418.909	7.94014
419.118	7.06404
419.327	7.42375
419.536	7.31995
419.744	7.26531
419.953	8.39495
420.162	8.61693
420.371	7.96555
420.579	8.31481
420.788	9.12616
420.997	9.20998
421.205	9.57164
421.414	9.27977
421.623	9.36012
421.831	8.99964
422.04	9.522
422.249	8.74138
422.457	9.10968
422.666	8.34505
422.874	9.16758
423.083	9.31622
423.291	9.24675
423.5	9.11377
423.708	9.45385
423.917	9.83748
424.125	9.37732
424.334	9.21791
424.542	10.84038
424.751	10.33899
424.959	9.93048
425.167	10.0773
425.376	9.99226
425.584	8.89813
425.793	8.86217
426.001	8.09977
426.209	8.30255
426.418	7.346
426.626	7.17613
426.834	6.99202
427.042	7.28772
