Data from WindowProjectSample3_Transmission__53__00053.txt Node

Date: Sun May 04 11:25:11 EDT 2025
User: jessi
Spectrometer: SR400872
Trigger mode: 0
Integration Time (sec): 5.000050E-1
Scans to average: 20
Electric dark correction enabled: true
Nonlinearity correction enabled: true
Boxcar width: 0
XAxis mode: Wavelengths
Number of Pixels in Spectrum: 3648
>>>>>Begin Spectral Data<<<<<
184.909	-1268.76227
185.132	-1455.65546
185.355	-1181.28324
185.578	-1078.08756
185.801	1214.28191
186.024	-983.34741
186.247	-4816.86543
186.47	-1653.36021
186.693	-179.88806
186.916	-482.7755
187.139	-788.09107
187.362	-2843.41548
187.585	-684.70724
187.808	-5158.48048
188.031	10815.08846
188.254	-2256.94859
188.476	-3573.35274
188.699	-1024.27643
188.922	627.64016
189.145	-1198.07349
189.368	3404.74525
189.591	-2238.24987
189.813	-1514.05533
190.036	-835.99373
190.259	-1125.0854
190.482	-1568.98034
190.705	-2351.2064
190.927	-717.50228
191.15	-1477.53412
191.373	-1123.37089
191.595	-1269.51577
191.818	-1325.36563
192.041	-663.39956
192.263	-1119.98562
192.486	-587.20419
192.709	-1492.52296
192.931	-3285.0555
193.154	-1172.56312
193.377	-1628.02493
193.599	-3084.05566
193.822	-3321.01168
194.044	-3264.29591
194.267	-1722.80484
194.489	-224.0637
194.712	-966.89781
194.934	-1729.39875
195.157	-731.18268
195.379	-1184.73759
195.602	-875.90522
195.824	-1290.82261
196.047	-2036.16072
196.269	-1057.97943
196.492	-1384.85599
196.714	-1226.5829
196.936	-1224.21217
197.159	-872.09544
197.381	-738.18775
197.604	-506.03768
197.826	-2001.69042
198.048	-1083.26796
198.271	-1535.51204
198.493	-1126.58831
198.715	-924.71745
198.938	-3274.22534
199.16	-4306.97236
199.382	-1231.6641
199.604	-1113.89495
199.827	-1830.46517
200.049	-1600.14611
200.271	-1210.19569
200.493	-1372.07241
200.715	-992.36966
200.938	-824.81171
201.16	-919.19232
201.382	-972.10487
201.604	-1216.66919
201.826	-709.13839
202.048	-810.04098
202.27	-1369.92738
202.492	-1407.07359
202.715	-1826.90943
202.937	-1927.15785
203.159	-1298.19906
203.381	-1481.48509
203.603	-983.39573
203.825	-5386.03043
204.047	-1627.65991
204.269	-1394.93926
204.491	-1237.21002
204.713	-1465.43719
204.935	-1402.83018
205.156	-2581.54842
205.378	-2712.91338
205.6	-1563.966
205.822	-1087.2066
206.044	1377.42307
206.266	-1292.6492
206.488	-867.33014
206.71	-1690.34832
206.932	-1729.78979
207.153	-1148.15088
207.375	-1328.36582
207.597	-1079.42869
207.819	-1108.84591
208.041	-1181.73502
208.262	-1561.86281
208.484	-834.14818
208.706	-2121.86407
208.927	-833.57068
209.149	-1245.00536
209.371	-1233.22269
209.593	-1381.68971
209.814	-645.77167
210.036	-967.47281
210.258	-724.17404
210.479	-997.52858
210.701	-1742.93297
210.922	-1206.56449
211.144	-1000.5801
211.366	-1064.9027
211.587	1415.79609
211.809	-1113.71741
212.03	-6387.58229
212.252	876.04111
212.473	-963.02832
212.695	-18371.71185
212.916	-3289.59557
213.138	-1596.41818
213.359	-906.00385
213.581	-1382.27718
213.802	-845.66195
214.024	-1331.15354
214.245	-11218.46906
214.466	-783.78017
214.688	-1417.13968
214.909	-1013.03053
215.131	-2690.99417
215.352	-3496.59229
215.573	-1056.09666
215.795	-1883.37379
216.016	-1464.55847
216.237	-2970.83998
216.459	-1426.28403
216.68	-1044.53553
216.901	-1489.31409
217.122	10767.76361
217.344	-959.12004
217.565	-1299.59983
217.786	-1321.97888
218.007	-897.09542
218.228	-1220.63442
218.45	-1152.58891
218.671	-1189.40547
218.892	-1035.66023
219.113	-1509.46814
219.334	-196.61599
219.555	-1384.19996
219.776	-1507.7108
219.997	-1241.02062
220.219	16755.26137
220.44	-1135.99372
220.661	-3107.62214
220.882	-948.57516
221.103	1583.619
221.324	-2728.72331
221.545	-1114.92203
221.766	-1291.88105
221.987	-1852.4155
222.208	-2079.35137
222.429	-770.52427
222.65	-738.86748
222.87	-1732.54222
223.091	-3442.28688
223.312	2909.4459
223.533	-1175.80736
223.754	-1544.2315
223.975	-2155.24356
224.196	8781.68867
224.417	-7740.25333
224.637	4385.32402
224.858	196.79931
225.079	-1845.11776
225.3	25941.77702
225.521	-1033.41105
225.741	-5476.50488
225.962	7126.88736
226.183	388.01239
226.404	-3586.08938
226.624	2416.7131
226.845	-81222.32755
227.066	-637141.71777
227.286	872.99097
227.507	311.09869
227.728	290.32147
227.948	664.62391
228.169	173.76062
228.389	168.32199
228.61	96.6138
228.831	132.57257
229.051	9.91419
229.272	70.44453
229.492	104.90315
229.713	30.92351
229.933	71.77259
230.154	59.25986
230.374	100.03273
230.595	72.64267
230.815	44.75046
231.036	72.71576
231.256	-10.10851
231.477	129.33494
231.697	71.21755
231.917	81.50685
232.138	116.86793
232.358	235.67666
232.579	189.87842
232.799	28.50411
233.019	191.50431
233.24	234.12747
233.46	80.53847
233.68	116.12874
233.901	79.58868
234.121	55.83543
234.341	27.61953
234.561	-8.09942
234.782	39.651
235.002	135.94632
235.222	0.2022
235.442	114.1403
235.662	56.06943
235.883	111.97406
236.103	95.68904
236.323	67.88738
236.543	52.47381
236.763	73.6803
236.983	84.08391
237.203	80.53493
237.423	112.6175
237.643	166.9276
237.864	148.30967
238.084	32.36066
238.304	44.97975
238.524	85.35008
238.744	75.17234
238.964	135.22393
239.184	114.55611
239.404	125.02709
239.624	61.63014
239.843	108.30736
240.063	62.85288
240.283	41.15468
240.503	45.09915
240.723	45.56204
240.943	28.49222
241.163	34.99608
241.383	25.97132
241.603	12.9008
241.822	15.27551
242.042	10.50267
242.262	14.09027
242.482	14.62582
242.702	16.71122
242.921	5.58415
243.141	11.21355
243.361	10.51884
243.581	15.16441
243.8	12.34456
244.02	8.46321
244.24	14.99931
244.459	14.39023
244.679	29.36201
244.899	19.20527
245.118	23.10026
245.338	20.7523
245.558	23.58853
245.777	13.51456
245.997	16.84553
246.216	17.59713
246.436	10.1922
246.655	7.46468
246.875	5.58528
247.094	10.04738
247.314	3.7055
247.533	6.0486
247.753	6.78617
247.972	5.5778
248.192	2.26818
248.411	3.16586
248.631	5.32665
248.85	6.87333
249.07	6.9783
249.289	9.94943
249.508	6.90889
249.728	11.41113
249.947	11.52502
250.166	14.05662
250.386	7.43607
250.605	10.99827
250.824	18.58987
251.044	12.61956
251.263	38.50365
251.482	22.92637
251.701	20.22411
251.921	0.46798
252.14	5.81146
252.359	7.52718
252.578	16.30259
252.798	6.03345
253.017	14.04546
253.236	7.44477
253.455	9.30442
253.674	18.47347
253.893	7.97656
254.112	12.69514
254.331	19.28114
254.551	15.75143
254.77	7.75403
254.989	23.40895
255.208	17.91789
255.427	25.65297
255.646	21.97395
255.865	34.01459
256.084	14.66835
256.303	18.95917
256.522	22.46903
256.741	5.59408
256.96	4.97752
257.179	13.928
257.397	18.31545
257.616	9.75805
257.835	10.18442
258.054	25.69681
258.273	16.91022
258.492	17.65061
258.711	10.24466
258.93	4.97107
259.148	7.60265
259.367	7.10261
259.586	9.17088
259.805	4.26154
260.023	7.6286
260.242	5.70944
260.461	4.37615
260.68	2.15143
260.898	6.47775
261.117	2.30667
261.336	1.57946
261.554	5.60923
261.773	5.52102
261.992	1.44046
262.21	5.25344
262.429	6.6379
262.648	11.09659
262.866	12.73601
263.085	9.44077
263.303	7.85128
263.522	14.03316
263.74	13.93893
263.959	23.85389
264.178	12.52612
264.396	10.84772
264.615	6.76384
264.833	17.97994
265.051	15.06695
265.27	17.6589
265.488	17.44603
265.707	10.61318
265.925	17.7815
266.144	8.19962
266.362	9.3317
266.58	9.56494
266.799	8.0015
267.017	9.71275
267.235	8.7274
267.454	6.27785
267.672	2.81785
267.89	7.07766
268.109	7.4998
268.327	7.19763
268.545	1.81378
268.763	6.75337
268.982	3.24049
269.2	7.52516
269.418	5.26656
269.636	3.84535
269.854	7.40483
270.073	5.12885
270.291	3.18714
270.509	3.08689
270.727	7.37436
270.945	11.94934
271.163	11.61553
271.381	2.85539
271.599	5.07302
271.817	7.97181
272.036	3.14918
272.254	5.49035
272.472	3.86428
272.69	4.06258
272.908	4.24929
273.126	6.34222
273.344	8.29596
273.562	3.09251
273.779	4.46356
273.997	6.76959
274.215	6.45724
274.433	4.55759
274.651	7.00444
274.869	7.32701
275.087	4.29932
275.305	6.63914
275.523	4.32234
275.74	4.76821
275.958	8.94484
276.176	12.87979
276.394	3.93011
276.612	5.24776
276.829	5.0779
277.047	4.6465
277.265	4.87409
277.483	5.79238
277.7	6.53323
277.918	5.6257
278.136	9.79843
278.353	4.82691
278.571	2.94327
278.789	7.68614
279.006	1.90036
279.224	4.91789
279.442	7.90761
279.659	5.72989
279.877	3.6341
280.094	8.3246
280.312	1.72194
280.529	5.62982
280.747	2.16655
280.964	4.97351
281.182	8.95125
281.399	4.88014
281.617	5.85402
281.834	4.27811
282.052	3.20293
282.269	5.39623
282.487	4.01437
282.704	3.77311
282.921	3.45515
283.139	5.40506
283.356	6.89446
283.574	6.50797
283.791	2.94136
284.008	8.26443
284.226	5.10896
284.443	5.58694
284.66	7.11201
284.877	5.96758
285.095	3.66421
285.312	3.04618
285.529	1.63331
285.746	1.43812
285.964	3.33988
286.181	2.24552
286.398	3.22047
286.615	4.34177
286.832	4.2017
287.05	1.0952
287.267	3.0992
287.484	3.09343
287.701	4.36886
287.918	4.11965
288.135	4.38399
288.352	1.84665
288.569	2.35307
288.786	4.25718
289.003	2.90138
289.22	5.07788
289.437	2.94058
289.654	4.66767
289.871	4.70651
290.088	4.9066
290.305	3.84895
290.522	3.181
290.739	3.41964
290.956	4.95569
291.173	5.7672
291.39	5.46432
291.607	3.79307
291.824	3.20965
292.04	2.19827
292.257	4.90665
292.474	5.31644
292.691	3.38912
292.908	1.67904
293.125	2.74752
293.341	1.8507
293.558	8.04567
293.775	3.55546
293.992	3.7594
294.208	1.39948
294.425	2.42532
294.642	3.12351
294.858	4.54354
295.075	1.39114
295.292	3.51117
295.508	4.15939
295.725	5.69486
295.942	2.91142
296.158	2.16347
296.375	3.53248
296.591	2.81432
296.808	2.70154
297.024	3.27768
297.241	3.57016
297.458	3.7863
297.674	0.48041
297.891	2.97512
298.107	2.43427
298.323	1.81584
298.54	4.31592
298.756	2.13295
298.973	1.05781
299.189	4.5929
299.406	2.15169
299.622	4.64512
299.838	4.73229
300.055	4.08955
300.271	1.11174
300.487	1.83932
300.704	2.0628
300.92	1.3495
301.136	6.25462
301.353	4.64663
301.569	3.43594
301.785	3.65765
302.001	4.18865
302.218	3.80436
302.434	3.89994
302.65	1.42058
302.866	2.53973
303.083	6.45841
303.299	6.44652
303.515	3.36534
303.731	3.67761
303.947	1.30488
304.163	2.3388
304.379	3.53667
304.595	3.94794
304.812	2.41402
305.028	1.96011
305.244	2.82928
305.46	4.39842
305.676	4.5048
305.892	5.22131
306.108	3.97628
306.324	2.98132
306.54	6.14025
306.756	4.19572
306.972	3.94576
307.187	2.91882
307.403	5.66902
307.619	2.54199
307.835	5.03198
308.051	5.23302
308.267	1.87156
308.483	4.88609
308.699	4.10445
308.914	3.26033
309.13	3.41576
309.346	0.90898
309.562	1.77156
309.778	1.05984
309.993	4.01498
310.209	3.15264
310.425	1.4188
310.641	2.80605
310.856	1.69928
311.072	1.64958
311.288	3.00455
311.503	3.2288
311.719	0.72925
311.935	0.53863
312.15	3.52975
312.366	3.28691
312.581	3.84259
312.797	3.12004
313.013	4.04806
313.228	2.40936
313.444	3.15532
313.659	1.96641
313.875	3.84238
314.09	3.18155
314.306	5.47136
314.521	4.39749
314.737	4.2667
314.952	3.64544
315.168	3.50023
315.383	3.86348
315.599	2.95126
315.814	2.95356
316.029	4.72332
316.245	1.48549
316.46	1.06783
316.675	5.22415
316.891	6.21811
317.106	7.64967
317.321	4.13402
317.537	4.07407
317.752	4.38948
317.967	4.77453
318.183	2.31434
318.398	2.83107
318.613	4.71213
318.828	5.54223
319.043	4.74147
319.259	2.99549
319.474	3.77163
319.689	5.23456
319.904	1.00989
320.119	4.75913
320.334	4.00341
320.549	2.99887
320.765	5.15111
320.98	3.88694
321.195	4.8032
321.41	3.30728
321.625	4.67284
321.84	6.21584
322.055	6.14869
322.27	2.3236
322.485	1.90208
322.7	3.89756
322.915	5.31979
323.13	2.34523
323.345	5.78028
323.56	4.33968
323.775	4.58865
323.989	4.27924
324.204	3.7049
324.419	4.76822
324.634	1.47923
324.849	3.30127
325.064	6.4136
325.279	4.97176
325.493	4.14112
325.708	4.97671
325.923	2.39906
326.138	2.444
326.352	5.8645
326.567	4.95174
326.782	2.93853
326.997	2.30057
327.211	4.30502
327.426	4.006
327.641	3.11912
327.855	1.28259
328.07	4.41846
328.285	6.14114
328.499	3.12079
328.714	3.89759
328.928	4.85847
329.143	3.69867
329.358	5.14306
329.572	5.04316
329.787	5.5622
330.001	7.67735
330.216	1.54616
330.43	6.36869
330.645	6.15089
330.859	5.06201
331.074	2.41646
331.288	3.80262
331.503	6.01598
331.717	2.15756
331.931	3.71508
332.146	3.81994
332.36	6.73573
332.575	4.35393
332.789	4.05661
333.003	3.4286
333.218	4.40631
333.432	2.60398
333.646	4.84518
333.86	6.03812
334.075	6.37293
334.289	2.95923
334.503	2.11737
334.717	4.52352
334.932	4.26126
335.146	5.12085
335.36	2.92864
335.574	4.29842
335.788	4.2822
336.003	5.16301
336.217	4.8177
336.431	4.41061
336.645	3.05989
336.859	2.12058
337.073	3.62525
337.287	4.07406
337.501	2.17142
337.715	4.1367
337.929	4.65265
338.143	1.96212
338.357	3.53397
338.571	2.50105
338.785	4.54454
338.999	2.72028
339.213	2.80568
339.427	1.67874
339.641	5.26824
339.855	3.09606
340.069	2.55822
340.283	4.99507
340.497	5.95999
340.711	4.24741
340.924	3.18928
341.138	2.33008
341.352	1.76129
341.566	3.77179
341.78	1.02724
341.993	2.70497
342.207	2.25341
342.421	3.95983
342.635	3.5799
342.848	2.6757
343.062	0.57181
343.276	2.50471
343.49	6.67
343.703	2.68659
343.917	4.64861
344.131	4.77978
344.344	2.49063
344.558	2.78496
344.771	2.22881
344.985	5.07073
345.199	5.84021
345.412	3.84528
345.626	3.98956
345.839	1.11996
346.053	1.95038
346.266	2.11735
346.48	4.34091
346.693	3.81097
346.907	3.98302
347.12	2.31547
347.334	3.68433
347.547	4.01714
347.76	3.08698
347.974	5.01025
348.187	4.03748
348.401	3.15866
348.614	2.55811
348.827	3.19353
349.041	4.21065
349.254	1.16902
349.467	3.25712
349.681	1.94696
349.894	2.58289
350.107	5.0822
350.32	6.04839
350.534	1.51821
350.747	3.18784
350.96	2.15235
351.173	2.35031
351.386	2.61751
351.6	2.8216
351.813	2.56148
352.026	3.41993
352.239	1.75859
352.452	3.04255
352.665	4.65529
352.878	3.09745
353.092	6.2888
353.305	4.39324
353.518	3.55308
353.731	2.23656
353.944	4.71573
354.157	2.62381
354.37	2.37155
354.583	1.88796
354.796	1.21591
355.009	4.87442
355.222	3.49334
355.435	3.42492
355.647	4.61599
355.86	1.92589
356.073	3.23095
356.286	2.50433
356.499	4.28274
356.712	3.84971
356.925	3.66291
357.138	4.45922
357.35	1.75104
357.563	2.64284
357.776	3.23848
357.989	2.88493
358.201	3.74175
358.414	3.46817
358.627	4.48042
358.84	2.79334
359.052	1.59141
359.265	1.82373
359.478	4.28833
359.69	-0.1551
359.903	4.10471
360.116	4.24999
360.328	1.07884
360.541	3.98297
360.753	1.81286
360.966	2.33359
361.179	2.45779
361.391	2.31492
361.604	1.73438
361.816	2.26406
362.029	2.10821
362.241	1.76698
362.454	2.19887
362.666	1.82037
362.879	2.84305
363.091	2.40354
363.304	1.90616
363.516	2.70353
363.728	1.37928
363.941	3.31361
364.153	2.34264
364.366	0.29967
364.578	1.58267
364.79	3.57433
365.003	2.81616
365.215	2.39983
365.427	3.46922
365.639	4.30167
365.852	3.24033
366.064	5.02564
366.276	2.19133
366.488	3.37792
366.701	2.49117
366.913	2.74615
367.125	2.69306
367.337	2.02973
367.549	2.29434
367.762	2.95268
367.974	2.90459
368.186	2.20155
368.398	4.18051
368.61	3.7281
368.822	3.8995
369.034	2.90305
369.246	3.79654
369.458	5.89912
369.67	1.7863
369.882	5.30599
370.094	0.55074
370.306	4.87356
370.518	2.54496
370.73	2.19581
370.942	2.08041
371.154	2.68206
371.366	2.46519
371.578	3.40265
371.79	2.13336
372.002	4.42556
372.214	5.04614
372.425	3.05912
372.637	4.53123
372.849	3.43589
373.061	0.36267
373.273	3.49062
373.484	3.6245
373.696	3.94392
373.908	0.26544
374.12	4.34506
374.331	3.40303
374.543	2.07326
374.755	1.92789
374.967	3.18499
375.178	3.96612
375.39	2.77218
375.602	3.08571
375.813	1.30133
376.025	1.50826
376.236	2.78318
376.448	3.14026
376.66	2.42452
376.871	2.28511
377.083	3.96496
377.294	4.22906
377.506	2.43999
377.717	4.30946
377.929	3.08688
378.14	1.97755
378.352	3.53267
378.563	3.4774
378.775	4.4326
378.986	1.99988
379.197	2.94594
379.409	2.23127
379.62	3.80181
379.832	3.21447
380.043	2.72498
380.254	3.2613
380.466	1.45318
380.677	6.16277
380.888	5.54528
381.1	5.90524
381.311	5.83889
381.522	2.96473
381.733	6.60686
381.945	2.76117
382.156	3.09218
382.367	2.26483
382.578	6.241
382.789	6.15087
383.001	2.35179
383.212	4.75252
383.423	4.86315
383.634	4.44964
383.845	3.66578
384.056	2.60564
384.267	2.9856
384.478	2.93062
384.69	1.73562
384.901	3.79116
385.112	3.5501
385.323	4.94161
385.534	3.53358
385.745	3.28385
385.956	3.69671
386.167	1.90529
386.378	3.80091
386.588	1.63142
386.799	2.18662
387.01	1.28416
387.221	4.06368
387.432	2.9266
387.643	5.32777
387.854	2.70282
388.065	2.70568
388.275	2.84268
388.486	2.662
388.697	2.88791
388.908	2.72056
389.119	4.49151
389.329	5.07132
389.54	3.12262
389.751	3.57642
389.962	4.6259
390.172	3.40542
390.383	2.55854
390.594	2.35656
390.804	2.4164
391.015	2.45714
391.226	3.13752
391.436	3.72265
391.647	3.40476
391.858	3.82074
392.068	1.12609
392.279	1.6698
392.489	3.05866
392.7	4.1916
392.91	1.79535
393.121	2.24769
393.331	3.54832
393.542	4.44773
393.752	3.38274
393.963	3.26335
394.173	3.0339
394.384	3.83239
394.594	3.01635
394.804	1.88807
395.015	3.23006
395.225	3.80253
395.436	1.80585
395.646	3.65147
395.856	2.30519
396.067	1.66945
396.277	4.25361
396.487	3.59767
396.697	3.14977
396.908	3.99392
397.118	3.93545
397.328	3.4781
397.538	4.28431
397.749	2.48166
397.959	4.20312
398.169	3.91341
398.379	1.62268
398.589	4.16938
398.8	3.32268
399.01	3.12845
399.22	2.81293
399.43	5.73307
399.64	2.86072
399.85	3.94534
400.06	3.06445
400.27	2.47985
400.48	3.30672
400.69	4.89028
400.9	2.65548
401.11	2.36659
401.32	4.1858
401.53	2.65371
401.74	5.12889
401.95	4.10106
402.16	2.16765
402.37	3.988
402.58	2.58179
402.79	4.08048
403	4.48123
403.209	2.60863
403.419	4.21455
403.629	2.73114
403.839	4.17222
404.049	4.06538
404.258	2.28316
404.468	2.13193
404.678	3.81948
404.888	3.94717
405.097	2.25571
405.307	3.05006
405.517	3.71483
405.727	3.46205
405.936	2.78034
406.146	3.30745
406.356	4.60833
406.565	3.22424
406.775	2.63109
406.984	2.79509
407.194	5.10836
407.404	3.43651
407.613	3.67927
407.823	4.31703
408.032	4.56467
408.242	4.44462
408.451	2.75736
408.661	3.13075
408.87	5.31307
409.08	2.76072
409.289	3.85517
409.499	3.52352
409.708	3.58083
409.918	1.34559
410.127	3.39979
410.336	5.1096
410.546	3.93268
410.755	3.07456
410.964	2.81301
411.174	2.68111
411.383	3.95754
411.592	3.90538
411.802	2.31616
412.011	4.50357
412.22	3.44368
412.429	4.97514
412.639	4.82017
412.848	4.94429
413.057	5.38053
413.266	4.83306
413.475	3.43871
413.685	4.35964
413.894	4.46677
414.103	4.77862
414.312	4.3875
414.521	3.48144
414.73	3.80591
414.939	5.52049
415.148	4.24594
415.357	3.84833
415.566	3.10751
415.776	3.22711
415.985	2.89463
416.194	4.1593
416.403	5.06969
416.611	2.17649
416.82	2.79422
417.029	3.27346
417.238	2.66236
417.447	2.45492
417.656	2.70975
417.865	2.49939
418.074	2.74643
418.283	3.00876
418.492	3.76231
418.7	3.66439
418.909	4.40247
419.118	3.17559
419.327	3.34124
419.536	3.09835
419.744	2.5052
419.953	3.79648
420.162	3.71727
420.371	2.32943
420.579	2.17539
420.788	3.28784
420.997	3.22184
421.205	3.23765
421.414	2.83069
421.623	2.82008
421.831	2.38908
422.04	3.28433
422.249	2.40264
422.457	3.16443
422.666	2.48825
422.874	3.65243
423.083	3.59865
423.291	3.45562
423.5	3.04376
423.708	3.2008
423.917	3.639
424.125	3.02846
424.334	2.66183
424.542	4.63471
424.751	3.75654
424.959	3.61374
425.167	4.00815
425.376	3.85482
425.584	3.28674
