Data from WindowProjectSample_Transmission__4__00004__04622544248406729.txt Node

Date: Mon May 05 16:36:29 EDT 2025
User: jessi
Spectrometer: SR400872
Trigger mode: 0
Integration Time (sec): 5.000010E-1
Scans to average: 20
Electric dark correction enabled: true
Nonlinearity correction enabled: true
Boxcar width: 0
XAxis mode: Wavelengths
Number of Pixels in Spectrum: 3648
>>>>>Begin Spectral Data<<<<<
184.909	19339.60418
185.132	-4701.52024
185.355	-2840.97456
185.578	-16630.21346
185.801	1458.60419
186.024	9273.32613
186.247	-1563.85114
186.47	1136.18982
186.693	363.6701
186.916	195.882
187.139	-3350.96861
187.362	3186.46324
187.585	4443.82619
187.808	3002.74788
188.031	144.9205
188.254	-40869.83482
188.476	-614.02126
188.699	5724.73398
188.922	592.77786
189.145	-13792.4224
189.368	-606.21399
189.591	-1303.54915
189.813	2807.44544
190.036	-47760.32357
190.259	-760.57914
190.482	-4255.28611
190.705	6422.28447
190.927	-2354.83714
191.15	12177.76748
191.373	3101.08445
191.595	-7650.34131
191.818	-3805.27892
192.041	-6743.18098
192.263	-2927.80593
192.486	-764.90576
192.709	-3691.41168
192.931	7107.20338
193.154	-25342.02121
193.377	-2551.01781
193.599	-2340.47874
193.822	-8162.19692
194.044	-1755.80708
194.267	985.3274
194.489	330.68677
194.712	-39071.4643
194.934	-28733.13268
195.157	1149.76143
195.379	1248.35842
195.602	-6377.42497
195.824	-1213.262
196.047	-7857.96571
196.269	2436.58622
196.492	-5844.63481
196.714	24774.19328
196.936	-8053.77347
197.159	-1047.39583
197.381	911.89523
197.604	334.62315
197.826	10602.19977
198.048	-10414.35113
198.271	-2489.44293
198.493	6840.51767
198.715	2080.2611
198.938	-414.32356
199.16	6795.90789
199.382	-94114.35248
199.604	2473.47429
199.827	-973.90629
200.049	-2728.16388
200.271	13061.20249
200.493	1114.49778
200.715	-35010.25364
200.938	-5632.13912
201.16	-3982.83521
201.382	19021.86915
201.604	2074.85877
201.826	2007.54441
202.048	-1671.81636
202.27	-1731.39549
202.492	-34507.33225
202.715	2806.87035
202.937	-4137.51718
203.159	-5686.59238
203.381	1402.55643
203.603	6315.97812
203.825	5708.40392
204.047	2054.91059
204.269	-2566.05719
204.491	1902.21615
204.713	5360.22531
204.935	-448786.58679
205.156	1051.55016
205.378	-2746.51126
205.6	1473.67586
205.822	140696.71048
206.044	-921.60316
206.266	1377.78853
206.488	4158.76788
206.71	-4749.49388
206.932	1006.89402
207.153	11233.49458
207.375	-6335.2298
207.597	-34702.00698
207.819	-2528.04931
208.041	2253.93674
208.262	433.39952
208.484	685.562
208.706	-689.59669
208.927	-768.95181
209.149	475.4463
209.371	-2587.22604
209.593	-151.69227
209.814	-690.51421
210.036	508.82874
210.258	-615.07856
210.479	1485.17797
210.701	1492.23071
210.922	2917.37031
211.144	-3667.00026
211.366	1888.00162
211.587	5583.53
211.809	-7282.01826
212.03	2244.82825
212.252	371.22626
212.473	1949.9006
212.695	-5130.92481
212.916	2612.41104
213.138	-642.34559
213.359	3398.69947
213.581	4565.85988
213.802	-627.2688
214.024	1042.50746
214.245	1831.9648
214.466	2607.12951
214.688	-2796.70766
214.909	-1109.69911
215.131	-1528.65191
215.352	-2877.52221
215.573	13716.03648
215.795	4653.89823
216.016	5106.55563
216.237	710.27739
216.459	3088.11185
216.68	1580.03575
216.901	4684.0509
217.122	-2840.59879
217.344	-10622.26547
217.565	3136.45616
217.786	8213.66929
218.007	14999.14977
218.228	-685.11987
218.45	5093.95083
218.671	636.94216
218.892	32356.83037
219.113	1337.80597
219.334	-325.07311
219.555	8421.78565
219.776	2762.55454
219.997	21138.59456
220.219	2325.78448
220.44	-9349.48163
220.661	401.08852
220.882	1297.877
221.103	-983.20036
221.324	2090.3048
221.545	2033.35866
221.766	-8206.9526
221.987	766.08805
222.208	1458.11276
222.429	3989.23647
222.65	171.93171
222.87	16266.32123
223.091	650.18182
223.312	547.25399
223.533	1164.01779
223.754	1369.28239
223.975	1228.09437
224.196	1781.23752
224.417	1167.23569
224.637	551.54923
224.858	45.02518
225.079	1047.22048
225.3	627.62794
225.521	3576.83416
225.741	429.7734
225.962	460.01139
226.183	129.77179
226.404	599.78644
226.624	393.48536
226.845	596.27394
227.066	370.69302
227.286	226.62519
227.507	108.28698
227.728	106.3205
227.948	216.06685
228.169	63.44867
228.389	79.36229
228.61	44.03331
228.831	57.56987
229.051	-1.38375
229.272	35.81905
229.492	52.76038
229.713	13.08276
229.933	33.63615
230.154	29.57803
230.374	49.34833
230.595	34.65642
230.815	20.53444
231.036	36.39023
231.256	-8.15476
231.477	63.93372
231.697	33.23364
231.917	33.63639
232.138	49.49601
232.358	96.10262
232.579	95.79157
232.799	17.90283
233.019	91.76523
233.24	104.55389
233.46	34.47231
233.68	56.91094
233.901	36.80538
234.121	25.65442
234.341	8.28269
234.561	-2.49314
234.782	17.28416
235.002	60.29492
235.222	-3.27082
235.442	59.19257
235.662	28.58307
235.883	55.77698
236.103	44.55276
236.323	33.10629
236.543	25.65328
236.763	34.57136
236.983	40.49103
237.203	36.87503
237.423	53.22475
237.643	81.58367
237.864	65.43557
238.084	16.29077
238.304	25.0211
238.524	44.94862
238.744	36.89728
238.964	68.29337
239.184	53.67786
239.404	57.92308
239.624	31.86915
239.843	53.8484
240.063	33.7408
240.283	19.26174
240.503	23.34472
240.723	22.92733
240.943	13.37215
241.163	18.50923
241.383	12.85252
241.603	7.18298
241.822	9.14248
242.042	5.67801
242.262	7.33284
242.482	9.03118
242.702	9.45264
242.921	2.42084
243.141	6.04376
243.361	5.64714
243.581	8.00776
243.8	6.20657
244.02	4.82607
244.24	8.40852
244.459	8.22252
244.679	16.15681
244.899	10.16122
245.118	11.61314
245.338	10.48433
245.558	12.9108
245.777	7.40628
245.997	9.71217
246.216	9.59617
246.436	5.46664
246.655	4.71962
246.875	2.97933
247.094	5.66716
247.314	1.81206
247.533	3.39946
247.753	3.91873
247.972	3.03496
248.192	0.82142
248.411	1.54215
248.631	3.14322
248.85	4.13437
249.07	3.53208
249.289	5.09452
249.508	4.38611
249.728	6.89361
249.947	6.26034
250.166	7.85075
250.386	3.67214
250.605	5.98588
250.824	10.09704
251.044	6.93802
251.263	26.10063
251.482	13.42227
251.701	10.46005
251.921	-0.29647
252.14	3.04668
252.359	3.69133
252.578	9.28264
252.798	3.07044
253.017	7.94822
253.236	3.76606
253.455	4.94653
253.674	9.50656
253.893	4.60256
254.112	6.98663
254.331	9.95436
254.551	8.4671
254.77	2.75007
254.989	12.45309
255.208	8.18887
255.427	13.8743
255.646	10.50826
255.865	20.55974
256.084	7.4118
256.303	9.78191
256.522	11.93655
256.741	2.52923
256.96	2.84588
257.179	7.28315
257.397	10.25984
257.616	5.75868
257.835	5.65437
258.054	13.96252
258.273	9.71011
258.492	10.21655
258.711	6.29827
258.93	2.76766
259.148	4.15769
259.367	4.12539
259.586	4.98207
259.805	2.23152
260.023	4.77914
260.242	3.58508
260.461	2.44358
260.68	1.22511
260.898	4.0194
261.117	1.22304
261.336	0.82237
261.554	3.05116
261.773	3.09561
261.992	0.77108
262.21	2.99819
262.429	3.18539
262.648	6.51269
262.866	7.32877
263.085	5.12524
263.303	4.37569
263.522	7.52896
263.74	8.17029
263.959	14.17104
264.178	6.22572
264.396	5.95325
264.615	4.31613
264.833	9.58325
265.051	7.80502
265.27	9.91404
265.488	9.95343
265.707	5.65236
265.925	9.55858
266.144	4.37355
266.362	5.14555
266.58	4.84661
266.799	4.49667
267.017	5.69056
267.235	4.75027
267.454	3.07418
267.672	1.55069
267.89	3.72212
268.109	4.13579
268.327	3.96824
268.545	0.96814
268.763	3.51093
268.982	1.14222
269.2	3.64479
269.418	3.15064
269.636	1.83321
269.854	4.01659
270.073	2.84071
270.291	1.72418
270.509	1.6217
270.727	3.91231
270.945	6.74067
271.163	6.57486
271.381	1.20943
271.599	2.79026
271.817	4.95881
272.036	1.6731
272.254	2.79611
272.472	2.12383
272.69	2.33003
272.908	2.05581
273.126	4.18565
273.344	4.78718
273.562	1.51187
273.779	2.44181
273.997	3.38091
274.215	3.72272
274.433	2.56888
274.651	3.91455
274.869	4.14256
275.087	2.50987
275.305	3.67315
275.523	2.14079
275.74	2.64522
275.958	4.98279
276.176	7.32185
276.394	2.06083
276.612	2.98436
276.829	2.96117
277.047	2.47688
277.265	2.70352
277.483	3.08423
277.7	4.00513
277.918	3.30934
278.136	5.72411
278.353	2.5184
278.571	1.59741
278.789	3.99739
279.006	0.72016
279.224	2.85822
279.442	4.66153
279.659	3.04624
279.877	2.17708
280.094	5.61329
280.312	0.90263
280.529	2.92106
280.747	0.83963
280.964	2.41497
281.182	5.51106
281.399	2.44148
281.617	3.48876
281.834	2.31774
282.052	1.71266
282.269	2.85046
282.487	2.26941
282.704	1.78438
282.921	2.06145
283.139	3.07989
283.356	3.83049
283.574	3.46507
283.791	1.63201
284.008	5.07509
284.226	2.65176
284.443	2.98678
284.66	4.13864
284.877	3.0319
285.095	1.97254
285.312	1.38955
285.529	0.84748
285.746	0.65373
285.964	1.86118
286.181	1.32826
286.398	1.74726
286.615	2.49953
286.832	2.34325
287.05	0.42145
287.267	1.60957
287.484	1.68506
287.701	2.34814
287.918	2.49391
288.135	2.59848
288.352	1.09109
288.569	1.32332
288.786	2.27668
289.003	1.82631
289.22	2.81328
289.437	1.4425
289.654	2.65811
289.871	2.81387
290.088	2.68212
290.305	2.15482
290.522	1.57432
290.739	1.80828
290.956	2.84594
291.173	3.13635
291.39	3.23942
291.607	2.21821
291.824	1.62704
292.04	1.16408
292.257	2.60844
292.474	3.03645
292.691	1.78519
292.908	0.74783
293.125	1.62244
293.341	1.11101
293.558	4.45679
293.775	1.78842
293.992	2.08148
294.208	0.86007
294.425	1.39931
294.642	1.92868
294.858	3.02158
295.075	0.69947
295.292	1.94845
295.508	2.45292
295.725	4.19119
295.942	2.11779
296.158	1.67728
296.375	2.61185
296.591	2.08721
296.808	2.38269
297.024	2.82294
297.241	3.13021
297.458	3.31156
297.674	1.47273
297.891	2.93676
298.107	2.87859
298.323	2.38414
298.54	4.60791
298.756	2.85408
298.973	2.35277
299.189	4.71348
299.406	3.12496
299.622	4.6827
299.838	4.53286
300.055	4.64023
300.271	3.04284
300.487	3.23259
300.704	3.67269
300.92	3.196
301.136	6.69682
301.353	4.99168
301.569	4.40823
301.785	4.91384
302.001	5.3426
302.218	4.8725
302.434	5.39065
302.65	3.79361
302.866	4.60636
303.083	6.88881
303.299	7.12768
303.515	5.24264
303.731	5.71127
303.947	4.18226
304.163	5.05804
304.379	5.75038
304.595	6.11183
304.812	4.97274
305.028	5.07278
305.244	5.43196
305.46	6.379
305.676	6.54121
305.892	7.00974
306.108	6.37866
306.324	5.53695
306.54	7.4276
306.756	6.39334
306.972	6.22008
307.187	6.173
307.403	7.19771
307.619	5.76487
307.835	7.05988
308.051	7.55023
308.267	5.55386
308.483	7.50657
308.699	6.77533
308.914	6.5776
309.13	6.46143
309.346	5.71879
309.562	5.93619
309.778	5.841
309.993	7.24695
310.209	7.32158
310.425	6.14817
310.641	7.22949
310.856	6.49635
311.072	6.50645
311.288	7.2163
311.503	7.68487
311.719	6.00852
311.935	6.11695
312.15	8.00481
312.366	7.68523
312.581	7.83815
312.797	7.5249
313.013	8.14059
313.228	6.95681
313.444	7.13253
313.659	6.75531
313.875	7.71543
314.09	7.10727
314.306	8.32395
314.521	8.0297
314.737	7.9973
314.952	7.492
315.168	7.48425
315.383	7.79002
315.599	7.17543
315.814	7.22268
316.029	7.98126
316.245	6.7764
316.46	5.99079
316.675	8.36655
316.891	9.04056
317.106	9.85477
317.321	7.58061
317.537	8.30358
317.752	8.32713
317.967	8.46163
318.183	6.80331
318.398	7.30158
318.613	8.3444
318.828	8.79951
319.043	8.24857
319.259	7.57434
319.474	7.87553
319.689	8.92008
319.904	6.21447
320.119	8.65884
320.334	7.89767
320.549	7.55989
320.765	8.76313
320.98	8.08871
321.195	8.127
321.41	7.79131
321.625	8.49345
321.84	9.31599
322.055	9.0803
322.27	7.49656
322.485	6.97326
322.7	8.4744
322.915	8.56619
323.13	7.67269
323.345	9.55452
323.56	9.11422
323.775	9.00931
323.989	8.72894
324.204	8.58138
324.419	9.54345
324.634	7.55552
324.849	8.52041
325.064	11.50214
325.279	9.41753
325.493	8.82977
325.708	9.27314
325.923	8.0015
326.138	8.4099
326.352	9.8419
326.567	9.51822
326.782	8.15706
326.997	8.33996
327.211	9.12935
327.426	8.81156
327.641	8.44641
327.855	7.56252
328.07	9.07242
328.285	10.27969
328.499	8.29093
328.714	8.81718
328.928	8.89018
329.143	8.7075
329.358	9.62969
329.572	9.58481
329.787	9.8763
330.001	10.88067
330.216	7.56033
330.43	10.6229
330.645	9.81009
330.859	9.54243
331.074	7.92818
331.288	8.75949
331.503	10.10085
331.717	8.00745
331.931	9.00471
332.146	9.33171
332.36	10.54801
332.575	9.22417
332.789	9.1134
333.003	9.40092
333.218	9.48263
333.432	8.64885
333.646	9.95506
333.86	10.73717
334.075	10.22624
334.289	8.65196
334.503	7.98968
334.717	9.50797
334.932	9.14045
335.146	9.69054
335.36	8.27338
335.574	9.64198
335.788	9.2828
336.003	9.82405
336.217	9.79307
336.431	9.64383
336.645	8.80547
336.859	8.44013
337.073	9.25705
337.287	9.77649
337.501	8.34166
337.715	10.0864
337.929	10.26413
338.143	8.82702
338.357	9.54422
338.571	9.39937
338.785	10.4696
338.999	9.25197
339.213	9.12649
339.427	8.70112
339.641	10.64906
339.855	9.13409
340.069	8.82839
340.283	10.46378
340.497	11.09804
340.711	10.11876
340.924	9.60564
341.138	8.95775
341.352	8.75564
341.566	9.83246
341.78	8.56576
341.993	9.28912
342.207	9.30594
342.421	10.02892
342.635	9.63041
342.848	9.64922
343.062	8.02018
343.276	9.39085
343.49	11.16328
343.703	9.39856
343.917	10.81458
344.131	10.98986
344.344	9.19957
344.558	9.6495
344.771	8.81771
344.985	11.24846
345.199	11.27587
345.412	10.29861
345.626	10.463
345.839	9.05154
346.053	9.27297
346.266	9.48695
346.48	10.56014
346.693	10.51765
346.907	10.3202
347.12	9.41684
347.334	10.14935
347.547	10.35209
347.76	9.90234
347.974	10.77681
348.187	10.14276
348.401	9.75986
348.614	9.20964
348.827	9.69065
349.041	10.2803
349.254	8.82552
349.467	9.63652
349.681	9.47514
349.894	9.41661
350.107	11.14416
350.32	11.62833
350.534	9.29041
350.747	9.97613
350.96	9.71848
351.173	9.76935
351.386	10.0434
351.6	9.6553
351.813	9.93292
352.026	10.04386
352.239	9.50013
352.452	9.95533
352.665	11.22882
352.878	10.26753
353.092	11.93864
353.305	10.89282
353.518	10.55747
353.731	9.67645
353.944	11.27476
354.157	10.33569
354.37	10.17033
354.583	9.62982
354.796	9.80666
355.009	11.23132
355.222	10.97905
355.435	10.6368
355.647	11.6221
355.86	10.2987
356.073	11.02438
356.286	10.46448
356.499	11.57646
356.712	11.39597
356.925	11.58665
357.138	11.5953
357.35	10.67372
357.563	10.77851
357.776	11.47171
357.989	11.18583
358.201	11.66665
358.414	11.55243
358.627	12.36151
358.84	11.17117
359.052	10.51518
359.265	10.76998
359.478	11.98933
359.69	9.55926
359.903	11.93328
360.116	12.10274
360.328	10.46628
360.541	12.03941
360.753	11.07047
360.966	11.40166
361.179	11.61004
361.391	11.57434
361.604	11.48148
361.816	11.66911
362.029	11.70875
362.241	11.3754
362.454	11.85066
362.666	11.36394
362.879	12.37901
363.091	11.70666
363.304	11.68484
363.516	11.70792
363.728	11.19731
363.941	12.14646
364.153	12.02439
364.366	10.57498
364.578	11.32624
364.79	11.98456
365.003	12.05091
365.215	11.39159
365.427	12.34794
365.639	12.55378
365.852	11.90638
366.064	13.24036
366.276	11.91154
366.488	12.02483
366.701	11.82072
366.913	11.82329
367.125	11.92783
367.337	11.45349
367.549	11.78121
367.762	11.99808
367.974	11.93494
368.186	11.84665
368.398	12.59287
368.61	12.24981
368.822	12.51725
369.034	11.70811
369.246	12.63979
369.458	14.20367
369.67	11.61612
369.882	13.29916
370.094	11.00343
370.306	13.16906
370.518	12.0998
370.73	11.92999
370.942	12.03455
371.154	12.33633
371.366	12.31623
371.578	12.75255
371.79	12.55617
372.002	13.28327
372.214	14.1031
372.425	12.57118
372.637	13.81974
372.849	12.87732
373.061	11.52134
373.273	12.93703
373.484	12.80315
373.696	13.08555
373.908	11.42376
374.12	13.32607
374.331	13.09661
374.543	12.34159
374.755	12.22393
374.967	12.84676
375.178	13.53129
375.39	12.63912
375.602	13.17677
375.813	11.8928
376.025	12.60433
376.236	13.23231
376.448	13.34852
376.66	13.0715
376.871	13.16909
377.083	14.10227
377.294	14.69807
377.506	13.12953
377.717	14.47048
377.929	13.77015
378.14	13.42199
378.352	13.79267
378.563	14.00418
378.775	14.64434
378.986	13.01841
379.197	13.71636
379.409	13.08128
379.62	13.99448
379.832	13.98227
380.043	13.54905
380.254	14.00307
380.466	12.9908
380.677	15.68623
380.888	14.97551
381.1	15.52536
381.311	15.46834
381.522	14.19273
381.733	15.65316
381.945	14.15124
382.156	13.94396
382.367	13.82924
382.578	15.83718
382.789	15.99612
383.001	13.74314
383.212	15.39146
383.423	15.19067
383.634	15.1062
383.845	14.98878
384.056	14.37721
384.267	14.45937
384.478	14.61386
384.69	13.83381
384.901	14.91107
385.112	14.7859
385.323	15.84673
385.534	15.07897
385.745	15.12989
385.956	14.74227
386.167	14.34387
386.378	15.07141
386.588	14.52247
386.799	14.39873
387.01	14.04933
387.221	15.42027
387.432	15.11228
387.643	15.96807
387.854	15.04794
388.065	14.90541
388.275	14.97953
388.486	14.70603
388.697	15.08414
388.908	14.86096
389.119	16.01361
389.329	16.02675
389.54	15.29348
389.751	15.37087
389.962	16.12669
390.172	15.31349
390.383	15.45237
390.594	14.94076
390.804	15.07797
391.015	15.15077
391.226	15.67811
391.436	16.06131
391.647	15.99352
391.858	16.06961
392.068	14.96605
392.279	15.16111
392.489	15.95581
392.7	16.42159
392.91	15.47518
393.121	15.33351
393.331	16.16143
393.542	16.5416
393.752	16.29611
393.963	16.28942
394.173	16.29181
394.384	16.29131
394.594	16.25967
394.804	15.52531
395.015	16.41228
395.225	16.49182
395.436	15.68146
395.646	16.40814
395.856	16.11909
396.067	15.38232
396.277	16.53457
396.487	16.44287
396.697	16.43546
396.908	16.40441
397.118	16.56311
397.328	16.39271
397.538	16.93637
397.749	15.83521
397.959	16.80553
398.169	16.57493
398.379	15.62821
398.589	16.68378
398.8	16.67305
399.01	16.64963
399.22	16.40378
399.43	17.88122
399.64	16.57803
399.85	16.85658
400.06	16.65838
400.27	16.09996
400.48	16.68173
400.69	17.39837
400.9	16.46426
401.11	16.03846
401.32	17.16854
401.53	16.40872
401.74	17.53639
401.95	16.93534
402.16	16.47806
402.37	16.94872
402.58	16.56713
402.79	17.12287
403	17.54568
403.209	16.51894
403.419	17.75225
403.629	16.5226
403.839	17.63168
404.049	17.73175
404.258	16.91024
404.468	16.74999
404.678	17.60443
404.888	17.99722
405.097	17.04796
405.307	17.14884
405.517	17.66187
405.727	17.63452
405.936	17.18607
406.146	17.54463
406.356	18.13367
406.565	17.30227
406.775	17.23475
406.984	17.17399
407.194	18.48184
407.404	17.29187
407.613	17.85652
407.823	17.8827
408.032	18.05045
408.242	17.91255
408.451	17.17806
408.661	17.3126
408.87	18.41419
409.08	17.0637
409.289	17.66857
409.499	17.74395
409.708	17.67979
409.918	16.46541
410.127	17.86377
410.336	18.63624
410.546	18.18741
410.755	17.59161
410.964	17.68265
411.174	17.26049
411.383	18.04485
411.592	17.97258
411.802	17.30217
412.011	18.04368
412.22	17.76543
412.429	18.755
412.639	18.63528
412.848	18.32823
413.057	18.79296
413.266	18.53534
413.475	17.78451
413.685	18.21254
413.894	18.54368
414.103	18.65313
414.312	18.46057
414.521	17.82697
414.73	18.26504
414.939	19.41841
415.148	18.43631
415.357	18.3658
415.566	18.22013
415.776	18.18773
415.985	18.29644
416.194	18.80956
416.403	19.61917
416.611	17.84463
416.82	18.35597
417.029	18.70291
417.238	18.33533
417.447	18.24606
417.656	18.5496
417.865	18.3715
418.074	18.66896
418.283	18.87462
418.492	19.3256
418.7	19.22896
418.909	20.37549
419.118	19.68757
419.327	20.18903
419.536	20.27638
419.744	20.68094
419.953	22.13844
420.162	22.80416
420.371	22.67436
420.579	23.84051
420.788	24.56714
420.997	24.70197
421.205	25.67372
421.414	25.32496
421.623	25.71518
421.831	25.28606
422.04	25.74265
422.249	24.67175
422.457	24.63545
422.666	23.48189
