Data from WindowProjectSample_Transmission__5__00005.txt Node

Date: Sat May 03 14:56:16 EDT 2025
User: jessi
Spectrometer: SR400872
Trigger mode: 0
Integration Time (sec): 5.000010E-1
Scans to average: 6
Electric dark correction enabled: true
Nonlinearity correction enabled: true
Boxcar width: 0
XAxis mode: Wavelengths
Number of Pixels in Spectrum: 3648
>>>>>Begin Spectral Data<<<<<
184.909	17760.17463
185.132	2581.65148
185.355	23339.87958
185.578	-7786.18854
185.801	265.74173
186.024	-1504.21358
186.247	878.24703
186.47	1834.09779
186.693	-390.86396
186.916	-2042.57122
187.139	-2647.30769
187.362	1634.83664
187.585	2730.07874
187.808	-3228.66697
188.031	-834.07566
188.254	-1140.28143
188.476	-582.27626
188.699	2465.68669
188.922	-806.59499
189.145	-9699.40601
189.368	-365.31732
189.591	-1138.98843
189.813	-1724.97193
190.036	1280.37445
190.259	1604.1439
190.482	528.23153
190.705	10347.91052
190.927	-945.43941
191.15	3420.73641
191.373	2367.5428
191.595	-2387.86561
191.818	2315.50435
192.041	-225.94794
192.263	2576.94288
192.486	1906.61617
192.709	-5304.7656
192.931	2657.78436
193.154	-6091.26745
193.377	195295.80207
193.599	1393.26874
193.822	1887.75198
194.044	-2109.79721
194.267	476.39929
194.489	-503.21302
194.712	1347.72498
194.934	3291.7631
195.157	-14952.65296
195.379	766.02852
195.602	2236.75926
195.824	2004.54738
196.047	2592.24485
196.269	3208.03095
196.492	3520.42192
196.714	2653.12458
196.936	1162.92808
197.159	1397.0767
197.381	-2030.54477
197.604	-1328.72178
197.826	6096.12202
198.048	2950.79191
198.271	4248.6051
198.493	2216.50899
198.715	-5577.52457
198.938	-619.34144
199.16	1989.80335
199.382	1431.9749
199.604	-690.20965
199.827	8825.16711
200.049	944.14576
200.271	-2978.97758
200.493	-54861.22522
200.715	2242.65579
200.938	6625.08252
201.16	-7258.59386
201.382	-2702.43641
201.604	-2000.47489
201.826	6902.50391
202.048	911.37895
202.27	-15650.18375
202.492	4730.35594
202.715	-1249.91759
202.937	4647.23025
203.159	-2234.45387
203.381	841.97882
203.603	-3508.65684
203.825	-2449.05254
204.047	3365.49197
204.269	-1986.55414
204.491	2155.80448
204.713	1906.79102
204.935	15967.09896
205.156	1631.93489
205.378	-8952.20606
205.6	-3983.67653
205.822	9121.16674
206.044	-686.6011
206.266	4200.90045
206.488	1189.89335
206.71	28862.71939
206.932	2076.34117
207.153	-4831.04685
207.375	-1784.21314
207.597	8528.12202
207.819	3883.77164
208.041	2208.99795
208.262	-2187.4001
208.484	-1053.49922
208.706	-3094.15575
208.927	25668.98998
209.149	1001.68149
209.371	-6173.12948
209.593	1347.96768
209.814	5546.00522
210.036	-3510.18247
210.258	-5195.51235
210.479	-1306.53244
210.701	962.45382
210.922	6737.14594
211.144	-1143.22256
211.366	-5917.18388
211.587	-387.08763
211.809	9782.11275
212.03	-1242.37335
212.252	-1496.66091
212.473	857.67054
212.695	-2392.09981
212.916	2764.18628
213.138	2760.06803
213.359	-1738.84442
213.581	5938.28449
213.802	-1686.39178
214.024	16327.55906
214.245	-2968.37043
214.466	-738.17694
214.688	1564.37666
214.909	987.74664
215.131	-91424.22926
215.352	1528.3946
215.573	2447.72532
215.795	2900.00737
216.016	3906.50535
216.237	-587.06148
216.459	6731.372
216.68	99821.84893
216.901	-82872.71191
217.122	1782.66011
217.344	5967.10429
217.565	-58934.50252
217.786	1632.36285
218.007	2179.89995
218.228	-1155.44819
218.45	-1167.94019
218.671	-1068.28624
218.892	1098.58566
219.113	-18980.9775
219.334	-388.46969
219.555	-5467.45945
219.776	1685.84157
219.997	3495.03701
220.219	1082.91396
220.44	2365.36782
220.661	-2896.74654
220.882	3172.60834
221.103	-1007.26775
221.324	970.62888
221.545	2103.33727
221.766	-5663.5408
221.987	3367.78647
222.208	-1774.61817
222.429	3458.35224
222.65	-122.46481
222.87	-642.40424
223.091	7900.98851
223.312	2636.979
223.533	5611.02017
223.754	1824.86347
223.975	1490.50477
224.196	-10556.95532
224.417	997.77203
224.637	931.11539
224.858	-1011.6027
225.079	6723.44902
225.3	573.56517
225.521	2053.66571
225.741	1494.94093
225.962	701.82396
226.183	282.21376
226.404	636.10472
226.624	573.37908
226.845	362.39584
227.066	396.21134
227.286	181.55125
227.507	95.49974
227.728	82.51803
227.948	122.38778
228.169	39.84656
228.389	45.28341
228.61	24.56592
228.831	34.15477
229.051	4.44466
229.272	22.06041
229.492	30.66543
229.713	9.26481
229.933	23.5603
230.154	18.77375
230.374	31.66966
230.595	23.30724
230.815	14.38597
231.036	24.12068
231.256	-4.43262
231.477	43.3988
231.697	23.7395
231.917	26.17893
232.138	37.21749
232.358	83.49779
232.579	64.19872
232.799	11.26194
233.019	63.76101
233.24	72.96642
233.46	22.48718
233.68	40.7027
233.901	32.88015
234.121	19.5727
234.341	7.36909
234.561	-3.25084
234.782	15.65737
235.002	43.64319
235.222	-1.2794
235.442	40.65917
235.662	19.68342
235.883	44.19203
236.103	37.32795
236.323	21.98676
236.543	18.81252
236.763	29.54097
236.983	29.87894
237.203	30.37066
237.423	44.76776
237.643	64.04346
237.864	52.37313
238.084	12.82653
238.304	21.45276
238.524	32.12729
238.744	28.56811
238.964	48.96847
239.184	41.03142
239.404	43.3489
239.624	19.80134
239.843	39.26017
240.063	22.2807
240.283	18.97786
240.503	16.3644
240.723	16.06738
240.943	10.03383
241.163	13.16184
241.383	9.97767
241.603	5.09919
241.822	6.31583
242.042	4.17692
242.262	5.80134
242.482	6.79363
242.702	7.97952
242.921	2.61411
243.141	5.62268
243.361	4.77944
243.581	7.46405
243.8	6.47164
244.02	3.33128
244.24	7.42045
244.459	7.24665
244.679	13.7128
244.899	9.84015
245.118	10.42383
245.338	8.64004
245.558	9.70556
245.777	6.46768
245.997	7.49405
246.216	7.58041
246.436	4.14544
246.655	3.34948
246.875	2.26741
247.094	4.7447
247.314	1.75147
247.533	2.8763
247.753	3.396
247.972	2.70613
248.192	1.22171
248.411	1.61999
248.631	3.35846
248.85	3.7954
249.07	2.80222
249.289	5.43843
249.508	3.51915
249.728	6.16939
249.947	6.57986
250.166	6.52138
250.386	3.78237
250.605	5.233
250.824	8.76584
251.044	6.29944
251.263	20.18932
251.482	10.55323
251.701	10.05996
251.921	0.31058
252.14	3.74989
252.359	3.91383
252.578	8.08344
252.798	2.99632
253.017	7.46664
253.236	3.79913
253.455	4.81222
253.674	9.48117
253.893	5.08404
254.112	6.15848
254.331	9.0199
254.551	7.68673
254.77	4.23946
254.989	12.387
255.208	9.52308
255.427	11.65548
255.646	10.2121
255.865	17.23502
256.084	6.86144
256.303	7.8427
256.522	11.49775
256.741	2.24854
256.96	3.52858
257.179	7.16898
257.397	7.83233
257.616	4.68019
257.835	4.74568
258.054	11.71523
258.273	7.29573
258.492	8.80469
258.711	4.75773
258.93	2.08518
259.148	2.93331
259.367	3.39522
259.586	4.45238
259.805	1.96448
260.023	4.03457
260.242	3.11578
260.461	2.13088
260.68	1.34575
260.898	3.87827
261.117	1.14555
261.336	0.96258
261.554	3.15125
261.773	3.07854
261.992	0.35498
262.21	3.36523
262.429	3.48099
262.648	6.14724
262.866	7.08195
263.085	4.4755
263.303	4.06085
263.522	7.51232
263.74	7.45823
263.959	12.30754
264.178	6.34204
264.396	6.10215
264.615	3.99804
264.833	10.09902
265.051	8.28514
265.27	8.15992
265.488	9.13634
265.707	5.49402
265.925	8.99216
266.144	4.33651
266.362	5.47949
266.58	5.15745
266.799	3.93058
267.017	5.03923
267.235	4.51334
267.454	2.87653
267.672	1.71215
267.89	3.60516
268.109	4.03873
268.327	3.50807
268.545	1.02811
268.763	3.36847
268.982	1.31358
269.2	4.35329
269.418	2.38028
269.636	1.82781
269.854	3.61826
270.073	3.02312
270.291	1.4685
270.509	1.72596
270.727	3.81032
270.945	5.86361
271.163	6.05841
271.381	1.19662
271.599	2.39088
271.817	4.51411
272.036	1.4318
272.254	2.66944
272.472	1.97187
272.69	2.12001
272.908	2.06443
273.126	3.7808
273.344	4.67795
273.562	1.80533
273.779	2.42573
273.997	3.32218
274.215	3.93694
274.433	2.76839
274.651	3.78292
274.869	3.85391
275.087	2.59806
275.305	3.61105
275.523	2.08554
275.74	2.99766
275.958	4.68855
276.176	6.96356
276.394	2.10886
276.612	2.96222
276.829	2.86943
277.047	2.23929
277.265	2.51595
277.483	3.10528
277.7	3.54446
277.918	3.03889
278.136	5.48069
278.353	2.77772
278.571	1.28625
278.789	4.30825
279.006	1.21451
279.224	2.61668
279.442	4.64077
279.659	2.90584
279.877	2.04348
280.094	4.60867
280.312	1.02015
280.529	3.1285
280.747	0.85985
280.964	2.05272
281.182	5.42315
281.399	2.31739
281.617	3.14563
281.834	2.13557
282.052	1.91037
282.269	2.42667
282.487	2.17911
282.704	1.68446
282.921	2.24512
283.139	2.8307
283.356	3.7342
283.574	3.07245
283.791	1.71991
284.008	4.44898
284.226	2.41772
284.443	2.70989
284.66	3.4032
284.877	3.04528
285.095	1.87686
285.312	1.3084
285.529	0.96334
285.746	0.82655
285.964	1.90054
286.181	1.19226
286.398	1.86678
286.615	2.50124
286.832	2.31767
287.05	0.79959
287.267	1.65637
287.484	1.67359
287.701	2.39262
287.918	2.13781
288.135	2.3542
288.352	1.15243
288.569	1.25268
288.786	2.27996
289.003	1.59688
289.22	2.49174
289.437	1.5404
289.654	2.72443
289.871	2.84003
290.088	2.53868
290.305	2.26354
290.522	1.4794
290.739	2.01691
290.956	2.81006
291.173	3.41595
291.39	3.18244
291.607	2.33621
291.824	1.62252
292.04	1.05487
292.257	2.5011
292.474	3.09929
292.691	1.74734
292.908	0.96619
293.125	1.59256
293.341	0.86939
293.558	4.51133
293.775	1.84742
293.992	1.949
294.208	0.78142
294.425	1.05097
294.642	1.54873
294.858	2.36647
295.075	0.77491
295.292	1.70674
295.508	2.33652
295.725	3.44913
295.942	1.6342
296.158	1.26809
296.375	1.77831
296.591	1.4141
296.808	1.53053
297.024	1.71356
297.241	1.96869
297.458	2.25889
297.674	0.30354
297.891	1.83256
298.107	1.41944
298.323	1.10043
298.54	2.78704
298.756	1.21887
298.973	0.66961
299.189	2.88066
299.406	1.46342
299.622	2.67141
299.838	2.76506
300.055	2.5823
300.271	1.06398
300.487	1.03447
300.704	1.5037
300.92	1.08093
301.136	4.03788
301.353	2.86086
301.569	2.25317
301.785	2.5261
302.001	2.75298
302.218	2.41756
302.434	2.55291
302.65	1.21853
302.866	2.03027
303.083	4.2618
303.299	4.2664
303.515	2.46252
303.731	2.89778
303.947	1.5834
304.163	1.93677
304.379	2.63516
304.595	2.98255
304.812	2.00357
305.028	1.87104
305.244	2.23999
305.46	3.24993
305.676	3.38626
305.892	3.71519
306.108	3.10447
306.324	2.30166
306.54	4.25363
306.756	3.19037
306.972	3.05279
307.187	2.81313
307.403	3.76053
307.619	2.16003
307.835	3.41117
308.051	4.07471
308.267	1.61427
308.483	3.85743
308.699	3.31452
308.914	2.9502
309.13	2.79504
309.346	1.97706
309.562	2.125
309.778	1.93985
309.993	3.46417
310.209	3.31142
310.425	1.95395
310.641	3.23985
310.856	2.36989
311.072	2.40592
311.288	3.21843
311.503	3.59313
311.719	1.80064
311.935	1.94501
312.15	3.69537
312.366	3.51696
312.581	3.75697
312.797	3.43215
313.013	3.84464
313.228	2.8922
313.444	3.05495
313.659	2.67432
313.875	3.61467
314.09	3.18856
314.306	4.09502
314.521	3.57246
314.737	3.94826
314.952	3.31875
315.168	3.35496
315.383	3.69891
315.599	2.83469
315.814	3.12433
316.029	3.83034
316.245	2.60937
316.46	1.94437
316.675	4.23626
316.891	4.84047
317.106	5.49359
317.321	3.76405
317.537	3.96485
317.752	4.05157
317.967	3.98321
318.183	2.64026
318.398	3.05494
318.613	4.13634
318.828	4.44818
319.043	3.89464
319.259	2.86253
319.474	3.45654
319.689	4.39367
319.904	1.99592
320.119	4.27452
320.334	3.4089
320.549	3.3573
320.765	4.25344
320.98	3.89796
321.195	3.8674
321.41	3.25923
321.625	3.79479
321.84	4.63692
322.055	4.87303
322.27	2.95785
322.485	2.38826
322.7	3.81972
322.915	4.40764
323.13	3.10811
323.345	5.05122
323.56	4.40907
323.775	4.32636
323.989	4.32342
324.204	3.8495
324.419	4.425
324.634	2.78118
324.849	3.55192
325.064	6.37158
325.279	4.8838
325.493	4.39848
325.708	4.6672
325.923	3.11232
326.138	3.70872
326.352	5.21951
326.567	4.60134
326.782	3.49128
326.997	3.68794
327.211	4.45809
327.426	4.11772
327.641	3.96147
327.855	2.70557
328.07	4.67431
328.285	5.64795
328.499	3.66813
328.714	4.31423
328.928	4.28928
329.143	4.05067
329.358	4.99491
329.572	4.77002
329.787	5.52251
330.001	6.28435
330.216	2.68436
330.43	6.15518
330.645	5.32167
330.859	4.72552
331.074	3.34447
331.288	4.05254
331.503	5.56239
331.717	3.15714
331.931	4.0673
332.146	4.57709
332.36	6.06226
332.575	4.81181
332.789	4.42891
333.003	4.46626
333.218	5.10719
333.432	4.27365
333.646	5.29068
333.86	6.03396
334.075	5.97783
334.289	4.16122
334.503	3.32907
334.717	5.34708
334.932	4.87171
335.146	5.00427
335.36	3.82038
335.574	4.97874
335.788	4.64181
336.003	5.50256
336.217	5.52543
336.431	4.9628
336.645	4.25847
336.859	3.83722
337.073	4.89024
337.287	5.14543
337.501	3.80912
337.715	5.4954
337.929	5.33298
338.143	4.21636
338.357	4.85109
338.571	4.69793
338.785	5.8796
338.999	4.55815
339.213	4.96019
339.427	3.88079
339.641	6.02649
339.855	4.72257
340.069	4.26906
340.283	6.02434
340.497	6.5445
340.711	5.54722
340.924	5.30464
341.138	4.34619
341.352	4.02434
341.566	5.4047
341.78	4.0081
341.993	4.7653
342.207	4.26462
342.421	5.75777
342.635	5.18028
342.848	5.0585
343.062	3.15511
343.276	4.89365
343.49	7.06304
343.703	4.85292
343.917	6.15852
344.131	6.45323
344.344	4.77715
344.558	5.07388
344.771	4.54346
344.985	6.61959
345.199	7.25526
345.412	5.81747
345.626	6.27049
345.839	4.22582
346.053	4.71942
346.266	4.82429
346.48	6.08226
346.693	6.17362
346.907	6.10056
347.12	4.92261
347.334	5.79818
347.547	5.99685
347.76	5.61642
347.974	6.62482
348.187	5.81147
348.401	5.61252
348.614	4.5627
348.827	5.48316
349.041	5.92378
349.254	4.41042
349.467	5.44658
349.681	4.99832
349.894	5.02968
350.107	7.10988
350.32	7.3992
350.534	4.78251
350.747	5.63018
350.96	5.32304
351.173	5.42396
351.386	5.71456
351.6	5.37637
351.813	5.41578
352.026	5.69113
352.239	5.32938
352.452	5.21909
352.665	6.65466
352.878	5.63144
353.092	7.84175
353.305	6.54531
353.518	6.47409
353.731	5.20768
353.944	7.03083
354.157	5.69723
354.37	5.98905
354.583	5.12495
354.796	5.34846
355.009	7.07903
355.222	6.39748
355.435	6.38196
355.647	7.4119
355.86	5.69115
356.073	6.49639
356.286	5.99583
356.499	7.27421
356.712	7.37678
356.925	7.12791
357.138	7.43729
357.35	6.0344
357.563	6.48566
357.776	7.04879
357.989	6.99977
358.201	7.51842
358.414	7.22565
358.627	8.02641
358.84	6.77456
359.052	6.0695
359.265	6.11635
359.478	7.69523
359.69	5.08112
359.903	7.80211
360.116	7.73446
360.328	6.0356
360.541	7.81659
360.753	6.99898
360.966	7.04656
361.179	7.6021
361.391	7.35683
361.604	7.05302
361.816	7.34043
362.029	7.42372
362.241	7.06489
362.454	7.39914
362.666	6.9165
362.879	7.97385
363.091	7.35112
363.304	7.119
363.516	7.30766
363.728	6.56254
363.941	7.66147
364.153	7.68156
364.366	6.07286
364.578	6.64962
364.79	7.66486
365.003	7.82261
365.215	7.09107
365.427	8.07114
365.639	8.19182
365.852	7.82034
366.064	8.83914
366.276	7.21283
366.488	7.79073
366.701	7.37522
366.913	7.16862
367.125	7.57225
367.337	6.93374
367.549	7.22626
367.762	7.37164
367.974	7.66442
368.186	7.37156
368.398	8.20952
368.61	7.90164
368.822	7.86417
369.034	7.30427
369.246	8.38066
369.458	9.52138
369.67	7.23758
369.882	8.95809
370.094	6.38301
370.306	8.71751
370.518	7.7623
370.73	7.3649
370.942	7.58025
371.154	7.75945
371.366	7.8933
371.578	8.35355
371.79	8.04776
372.002	8.95176
372.214	9.68602
372.425	7.92877
372.637	9.4325
372.849	8.28561
373.061	6.43656
373.273	8.39444
373.484	8.49797
373.696	8.60467
373.908	6.62961
374.12	8.59454
374.331	8.50162
374.543	7.41942
374.755	7.41217
374.967	8.33245
375.178	9.05026
375.39	7.96031
375.602	8.46545
375.813	7.41957
376.025	7.82971
376.236	8.45818
376.448	8.86798
376.66	8.64795
376.871	8.53493
377.083	9.33108
377.294	9.94234
377.506	8.38985
377.717	9.72416
377.929	9.02834
378.14	8.4338
378.352	9.07129
378.563	9.35827
378.775	9.62596
378.986	8.07271
379.197	8.81373
379.409	8.13147
379.62	9.15984
379.832	8.87596
380.043	8.61544
380.254	9.21164
380.466	7.89834
380.677	10.93731
380.888	10.41308
381.1	11.03952
381.311	10.85399
381.522	9.4302
381.733	10.9189
381.945	9.0065
382.156	8.74814
382.367	8.8471
382.578	11.10663
382.789	11.29099
383.001	8.47063
383.212	10.54094
383.423	10.40531
383.634	10.11881
383.845	9.92266
384.056	9.03277
384.267	9.38067
384.478	9.71322
384.69	8.57312
384.901	9.93614
385.112	9.58245
385.323	10.72173
385.534	9.95252
385.745	10.06696
385.956	9.87431
386.167	8.91723
386.378	10.07892
386.588	9.22403
386.799	9.00471
387.01	8.74536
387.221	10.26396
387.432	9.99174
387.643	10.72574
387.854	9.61123
388.065	9.48754
388.275	9.61117
388.486	9.46514
388.697	9.84408
388.908	9.39344
389.119	10.70119
389.329	10.74391
389.54	9.84456
389.751	10.07471
389.962	10.80211
390.172	9.9572
390.383	9.76089
390.594	9.59561
390.804	9.61966
391.015	9.70611
391.226	10.34623
391.436	10.64879
391.647	10.59526
391.858	10.58435
392.068	9.43655
392.279	9.51902
392.489	10.39983
392.7	10.86358
392.91	9.99401
393.121	9.67261
393.331	10.83455
393.542	11.32577
393.752	11.05456
393.963	10.67005
394.173	10.83596
394.384	10.96163
394.594	10.55883
394.804	9.67245
395.015	10.47896
395.225	10.61922
395.436	9.82345
395.646	10.79053
395.856	10.26412
396.067	9.34091
396.277	10.98568
396.487	10.54836
396.697	10.73771
396.908	10.89486
397.118	10.79775
397.328	10.44205
397.538	11.37881
397.749	10.24892
397.959	11.31247
398.169	10.81143
398.379	9.73831
398.589	10.70914
398.8	10.91933
399.01	10.72479
399.22	10.49033
399.43	12.1646
399.64	10.6431
399.85	10.97037
400.06	10.74902
400.27	10.18481
400.48	10.67692
400.69	11.36235
400.9	10.32301
401.11	10.00121
401.32	11.14721
401.53	10.39715
401.74	11.69552
401.95	10.92939
402.16	10.80425
402.37	10.97937
402.58	10.60531
402.79	11.33719
403	11.45569
403.209	10.39474
403.419	11.52818
403.629	10.31755
403.839	11.75562
404.049	11.70974
404.258	11.08037
404.468	10.638
404.678	11.74047
404.888	12.05546
405.097	11.1456
405.307	11.0243
405.517	11.65859
405.727	11.53969
405.936	10.98223
406.146	11.15048
406.356	12.10765
406.565	10.95474
406.775	10.85068
406.984	10.70723
407.194	12.47444
407.404	11.17465
407.613	11.47732
407.823	11.50819
408.032	11.90633
408.242	11.776
408.451	10.90327
408.661	10.94728
408.87	12.23634
409.08	10.5999
409.289	11.52387
409.499	11.31005
409.708	11.3084
409.918	9.98946
410.127	11.55591
410.336	12.48394
410.546	11.89896
410.755	11.04079
410.964	11.16524
411.174	10.84055
411.383	11.68047
411.592	11.52004
411.802	10.79639
412.011	11.7319
412.22	11.3786
412.429	12.5966
412.639	12.17274
412.848	11.98759
413.057	12.48549
413.266	12.04004
413.475	11.54995
413.685	11.95792
413.894	12.11945
414.103	12.23023
414.312	11.86783
414.521	11.54358
414.73	11.83575
414.939	12.90044
415.148	12.18501
415.357	12.13104
415.566	11.85191
415.776	11.7774
415.985	11.70355
416.194	12.33572
416.403	13.24024
416.611	11.41753
416.82	11.83338
417.029	12.22822
417.238	11.99028
417.447	11.85351
417.656	12.28985
417.865	12.34429
418.074	12.76274
418.283	13.57518
418.492	14.78973
418.7	14.51945
418.909	16.42837
419.118	15.33953
419.327	15.97872
419.536	15.76956
419.744	16.21835
419.953	17.786
420.162	18.152
420.371	17.71283
420.579	18.54966
420.788	19.61104
420.997	19.79032
421.205	20.0678
421.414	19.8197
421.623	19.98132
421.831	19.27131
422.04	19.94538
422.249	18.53639
422.457	18.78579
422.666	17.85601
422.874	18.78217
423.083	18.95102
423.291	19.16408
423.5	19.42554
423.708	19.98748
423.917	20.51013
424.125	19.68394
424.334	19.64961
424.542	21.49896
424.751	20.90691
424.959	20.25396
425.167	20.12098
425.376	19.78876
425.584	18.11612
