Data from WindowProjectSample_Transmission__31__00031.txt Node

Date: Sat May 03 15:34:40 EDT 2025
User: jessi
Spectrometer: SR400872
Trigger mode: 0
Integration Time (sec): 5.000010E-1
Scans to average: 6
Electric dark correction enabled: true
Nonlinearity correction enabled: true
Boxcar width: 0
XAxis mode: Wavelengths
Number of Pixels in Spectrum: 3648
>>>>>Begin Spectral Data<<<<<
184.909	18711.87811
185.132	2597.73214
185.355	23755.52185
185.578	-8197.59779
185.801	328.23367
186.024	-1534.49318
186.247	787.89369
186.47	1804.78959
186.693	-144.61922
186.916	-2318.24647
187.139	-2707.33919
187.362	1711.58829
187.585	2887.98374
187.808	-3541.87117
188.031	-1706.73119
188.254	-1518.5137
188.476	-926.91293
188.699	2443.58939
188.922	-1080.93225
189.145	-10306.53299
189.368	-406.87866
189.591	-1288.78203
189.813	-1710.65861
190.036	1306.64756
190.259	1577.29984
190.482	619.98211
190.705	10638.68725
190.927	-1137.20245
191.15	3531.52741
191.373	2237.66844
191.595	-2339.53128
191.818	2584.69984
192.041	-296.70444
192.263	2644.70485
192.486	2076.07607
192.709	-5717.54918
192.931	3006.80687
193.154	-6492.89287
193.377	198526.08668
193.599	1457.36903
193.822	1737.13951
194.044	-2197.8064
194.267	494.87241
194.489	-561.04564
194.712	1503.91804
194.934	3307.71581
195.157	-12309.90012
195.379	856.5706
195.602	2389.90801
195.824	2071.46919
196.047	2470.55652
196.269	3102.00569
196.492	3704.041
196.714	2800.8618
196.936	1217.33498
197.159	1465.99554
197.381	-2481.5535
197.604	-786.80139
197.826	6605.02126
198.048	3177.80065
198.271	4178.8629
198.493	2281.95822
198.715	-6415.54717
198.938	-565.4849
199.16	1956.97336
199.382	1476.05488
199.604	-625.45954
199.827	9246.49528
200.049	1012.42243
200.271	-3154.1826
200.493	-55459.47938
200.715	2467.62867
200.938	6757.71362
201.16	-7558.38103
201.382	-3010.78062
201.604	-2158.67989
201.826	7017.19665
202.048	1042.37782
202.27	-16893.17438
202.492	4894.49037
202.715	-1191.48174
202.937	4741.35375
203.159	-2298.54559
203.381	977.16895
203.603	-3715.27611
203.825	-2714.47992
204.047	3444.93735
204.269	-2042.19074
204.491	2346.48987
204.713	2057.02227
204.935	15707.7764
205.156	1965.32439
205.378	-9409.65383
205.6	-4413.73967
205.822	9100.44966
206.044	-603.42366
206.266	4332.43351
206.488	1125.82251
206.71	28492.81374
206.932	2394.56806
207.153	-4893.79861
207.375	-1974.68735
207.597	8891.07601
207.819	4324.82035
208.041	2365.17002
208.262	-2962.00648
208.484	-1141.03906
208.706	-2656.77726
208.927	29972.0082
209.149	991.82877
209.371	-6720.58448
209.593	1520.50725
209.814	4840.49695
210.036	-3924.39405
210.258	-4775.71985
210.479	-1333.72182
210.701	1003.12305
210.922	7197.12071
211.144	-1328.27803
211.366	-6514.98292
211.587	-626.78663
211.809	10179.70483
212.03	-1178.06225
212.252	-1923.87731
212.473	805.45268
212.695	-2233.92446
212.916	3024.68671
213.138	4526.10632
213.359	-1929.36164
213.581	6603.40936
213.802	-1865.28133
214.024	18960.92347
214.245	-3484.94923
214.466	-576.79166
214.688	1666.58932
214.909	900.28887
215.131	-94188.67804
215.352	1636.54854
215.573	2552.16342
215.795	3041.90734
216.016	4280.30597
216.237	-664.57839
216.459	6672.81349
216.68	97088.89362
216.901	-83960.27176
217.122	1885.67918
217.344	6339.54961
217.565	-59589.79609
217.786	1508.49297
218.007	2066.73741
218.228	-1220.06649
218.45	-1169.93112
218.671	-1130.32741
218.892	1091.21999
219.113	-20370.55
219.334	-519.70256
219.555	-5262.26427
219.776	1580.59931
219.997	3421.42259
220.219	1276.88649
220.44	2362.95123
220.661	-3578.3339
220.882	3606.82878
221.103	-1272.54192
221.324	988.59503
221.545	2248.30832
221.766	-6022.2966
221.987	4076.18128
222.208	-1642.71368
222.429	3496.72842
222.65	-95.28522
222.87	-607.86453
223.091	8279.07328
223.312	2485.01145
223.533	6986.64147
223.754	1921.84561
223.975	1501.87185
224.196	-12010.88201
224.417	997.30567
224.637	893.79429
224.858	-802.87575
225.079	7017.0789
225.3	614.55647
225.521	2038.89392
225.741	1525.08616
225.962	833.79067
226.183	258.48342
226.404	680.57097
226.624	612.09148
226.845	396.04139
227.066	430.51792
227.286	208.82819
227.507	102.8509
227.728	84.23158
227.948	126.72004
228.169	37.57168
228.389	47.62743
228.61	25.96151
228.831	34.82265
229.051	3.55457
229.272	22.2011
229.492	30.84777
229.713	9.05732
229.933	23.12403
230.154	20.11855
230.374	32.7369
230.595	23.38168
230.815	16.99342
231.036	24.14441
231.256	-5.0775
231.477	42.33982
231.697	26.2829
231.917	27.40217
232.138	41.5971
232.358	77.19067
232.579	63.8704
232.799	12.25177
233.019	67.45856
233.24	78.40724
233.46	24.2971
233.68	40.39313
233.901	32.40085
234.121	18.67245
234.341	8.06585
234.561	-0.80313
234.782	15.93479
235.002	49.3564
235.222	-0.19956
235.442	39.8594
235.662	22.04601
235.883	42.17925
236.103	38.10999
236.323	27.61828
236.543	18.77545
236.763	28.99482
236.983	29.40946
237.203	31.16627
237.423	44.3718
237.643	63.56568
237.864	52.80828
238.084	16.73205
238.304	23.19776
238.524	34.7579
238.744	27.72846
238.964	47.31228
239.184	46.42641
239.404	45.03118
239.624	25.0769
239.843	41.91702
240.063	23.79495
240.283	17.80018
240.503	17.20129
240.723	16.07309
240.943	9.99985
241.163	13.56703
241.383	10.65972
241.603	4.78868
241.822	6.41975
242.042	4.77117
242.262	6.44046
242.482	6.79065
242.702	8.46124
242.921	2.81303
243.141	6.22146
243.361	5.33548
243.581	7.55366
243.8	6.64211
244.02	4.25839
244.24	8.3429
244.459	7.98347
244.679	14.39073
244.899	9.88389
245.118	11.10256
245.338	9.36483
245.558	10.43027
245.777	6.4333
245.997	7.93695
246.216	7.62256
246.436	4.20397
246.655	3.15965
246.875	2.56501
247.094	4.882
247.314	1.64067
247.533	2.78811
247.753	3.7912
247.972	2.7297
248.192	1.21463
248.411	1.68132
248.631	3.36848
248.85	4.13591
249.07	2.83816
249.289	5.15749
249.508	4.10172
249.728	6.45075
249.947	6.77032
250.166	7.09838
250.386	3.91442
250.605	6.01783
250.824	8.66667
251.044	7.22845
251.263	20.6505
251.482	10.75628
251.701	9.71467
251.921	-0.10141
252.14	3.48422
252.359	4.11749
252.578	8.58879
252.798	2.75158
253.017	7.91039
253.236	3.55331
253.455	5.12062
253.674	10.31293
253.893	4.59124
254.112	6.43758
254.331	9.842
254.551	8.59911
254.77	3.51248
254.989	12.03093
255.208	10.78988
255.427	13.26111
255.646	10.62861
255.865	18.71517
256.084	6.62867
256.303	8.96807
256.522	12.3467
256.741	3.20164
256.96	3.25024
257.179	7.95617
257.397	8.362
257.616	5.15307
257.835	6.39792
258.054	11.95143
258.273	7.37799
258.492	9.18055
258.711	5.70519
258.93	2.66341
259.148	3.15706
259.367	3.63934
259.586	4.6749
259.805	2.03676
260.023	4.30611
260.242	3.38479
260.461	2.36942
260.68	1.40554
260.898	3.86089
261.117	1.44839
261.336	0.88365
261.554	3.44221
261.773	3.24023
261.992	0.52701
262.21	3.0479
262.429	4.00158
262.648	6.54634
262.866	7.27879
263.085	4.78936
263.303	4.60273
263.522	7.28497
263.74	8.03118
263.959	12.89787
264.178	6.32686
264.396	6.17813
264.615	4.30754
264.833	9.72877
265.051	8.4511
265.27	8.22865
265.488	9.14557
265.707	6.06041
265.925	9.27607
266.144	4.15375
266.362	5.81661
266.58	5.17516
266.799	4.34433
267.017	5.49947
267.235	4.55023
267.454	2.73878
267.672	1.94375
267.89	3.7998
268.109	3.90595
268.327	3.9913
268.545	1.00564
268.763	3.73943
268.982	1.51862
269.2	4.64897
269.418	2.81202
269.636	2.2385
269.854	3.64724
270.073	3.0934
270.291	1.82989
270.509	1.91722
270.727	4.02625
270.945	5.94055
271.163	6.49584
271.381	1.60966
271.599	2.46293
271.817	4.62896
272.036	1.63227
272.254	2.90257
272.472	2.1734
272.69	2.28253
272.908	2.28153
273.126	3.92228
273.344	4.60848
273.562	1.67482
273.779	2.28699
273.997	3.4937
274.215	4.0198
274.433	2.65238
274.651	3.94708
274.869	4.25022
275.087	2.51409
275.305	3.8871
275.523	2.04981
275.74	2.79621
275.958	5.0228
276.176	6.9588
276.394	2.3415
276.612	2.91591
276.829	2.73202
277.047	2.43042
277.265	2.69248
277.483	3.27034
277.7	4.15863
277.918	3.27333
278.136	5.63646
278.353	3.06413
278.571	1.62026
278.789	4.44721
279.006	0.90784
279.224	2.62629
279.442	4.45245
279.659	2.91911
279.877	2.39006
280.094	4.75889
280.312	1.2872
280.529	3.11673
280.747	0.8592
280.964	2.39946
281.182	5.36757
281.399	2.53392
281.617	3.66917
281.834	2.41776
282.052	2.24357
282.269	2.85973
282.487	2.31036
282.704	1.77208
282.921	2.32855
283.139	3.0665
283.356	3.88006
283.574	3.29082
283.791	1.80864
284.008	4.55169
284.226	2.61659
284.443	3.13426
284.66	3.68275
284.877	3.06862
285.095	2.10295
285.312	1.45146
285.529	0.9339
285.746	0.81142
285.964	1.84008
286.181	1.34526
286.398	1.92132
286.615	2.50137
286.832	2.43319
287.05	0.87824
287.267	1.62661
287.484	1.89621
287.701	2.52452
287.918	2.45821
288.135	2.65639
288.352	1.33489
288.569	1.37112
288.786	2.2959
289.003	1.78756
289.22	2.4355
289.437	1.72566
289.654	2.87918
289.871	2.87047
290.088	2.63414
290.305	2.11797
290.522	1.59861
290.739	2.04973
290.956	2.75558
291.173	3.57291
291.39	3.12009
291.607	2.34469
291.824	1.73472
292.04	1.15371
292.257	2.66473
292.474	3.06954
292.691	1.68567
292.908	1.07858
293.125	1.75916
293.341	0.99941
293.558	4.82963
293.775	1.84006
293.992	2.06053
294.208	0.95584
294.425	0.91705
294.642	1.70418
294.858	2.54765
295.075	0.69974
295.292	1.81823
295.508	2.35468
295.725	3.4179
295.942	1.78422
296.158	1.1012
296.375	1.90335
296.591	1.45472
296.808	1.55765
297.024	1.78982
297.241	2.08111
297.458	2.30387
297.674	0.19095
297.891	1.76887
298.107	1.30481
298.323	1.00879
298.54	2.66148
298.756	1.22576
298.973	0.61315
299.189	2.79295
299.406	1.15604
299.622	2.66484
299.838	2.74782
300.055	2.57638
300.271	0.73989
300.487	0.892
300.704	1.04951
300.92	0.83507
301.136	3.67813
301.353	2.69675
301.569	1.93714
301.785	2.27322
302.001	2.49914
302.218	2.18941
302.434	2.08326
302.65	0.62065
302.866	1.54007
303.083	3.72053
303.299	3.40761
303.515	1.80128
303.731	1.991
303.947	0.64283
304.163	1.16328
304.379	1.99215
304.595	2.33734
304.812	1.47485
305.028	1.13386
305.244	1.67148
305.46	2.60944
305.676	2.75762
305.892	2.9223
306.108	2.06088
306.324	1.41179
306.54	3.50825
306.756	2.46438
306.972	2.39852
307.187	1.61616
307.403	3.1731
307.619	1.42425
307.835	2.77889
308.051	3.23231
308.267	0.57947
308.483	2.73964
308.699	2.3382
308.914	1.96065
309.13	1.77965
309.346	0.51114
309.562	1.01311
309.778	0.61368
309.993	2.22891
310.209	1.87729
310.425	0.80038
310.641	1.54355
310.856	0.8978
311.072	0.85871
311.288	1.7451
311.503	1.85886
311.719	0.42705
311.935	0.334
312.15	2.12338
312.366	1.86229
312.581	2.31846
312.797	1.8194
313.013	2.34442
313.228	1.37846
313.444	1.82055
313.659	1.34665
313.875	2.02557
314.09	1.86481
314.306	2.90732
314.521	2.65633
314.737	2.39625
314.952	2.12251
315.168	1.91862
315.383	2.41823
315.599	1.73816
315.814	1.62904
316.029	2.60943
316.245	0.74744
316.46	0.83377
316.675	2.98697
316.891	3.68201
317.106	4.42385
317.321	2.54479
317.537	2.48349
317.752	2.73916
317.967	2.90049
318.183	1.17278
318.398	1.75382
318.613	3.02445
318.828	3.25336
319.043	2.69186
319.259	1.55292
319.474	2.29863
319.689	2.99121
319.904	0.35813
320.119	2.60327
320.334	2.3597
320.549	1.99695
320.765	3.06767
320.98	2.3153
321.195	2.90738
321.41	1.88029
321.625	2.58974
321.84	3.54387
322.055	3.65942
322.27	1.44425
322.485	1.28265
322.7	1.99226
322.915	3.13653
323.13	1.33054
323.345	3.311
323.56	2.85615
323.775	2.78622
323.989	2.54995
324.204	2.07869
324.419	2.68214
324.634	0.99263
324.849	1.85093
325.064	4.15671
325.279	2.96908
325.493	2.51862
325.708	2.78788
325.923	1.20374
326.138	1.26937
326.352	3.48053
326.567	2.85331
326.782	1.64136
326.997	1.4271
327.211	2.41192
327.426	2.32757
327.641	1.72458
327.855	0.77606
328.07	2.56052
328.285	3.57073
328.499	1.72775
328.714	2.43035
328.928	2.61562
329.143	2.13261
329.358	2.84087
329.572	2.82176
329.787	3.27803
330.001	4.43024
330.216	0.79266
330.43	3.5985
330.645	3.50817
330.859	2.77784
331.074	1.46305
331.288	2.1855
331.503	3.14865
331.717	1.14135
331.931	2.04018
332.146	2.07281
332.36	3.8007
332.575	2.59117
332.789	2.37643
333.003	1.86646
333.218	2.53572
333.432	1.71129
333.646	2.71735
333.86	3.53826
334.075	3.70934
334.289	1.73434
334.503	1.35511
334.717	2.78444
334.932	2.5747
335.146	3.32593
335.36	1.8719
335.574	2.59035
335.788	2.49549
336.003	3.36239
336.217	2.54932
336.431	2.57396
336.645	1.49511
336.859	1.21539
337.073	1.85422
337.287	2.27715
337.501	1.1665
337.715	2.472
337.929	2.59924
338.143	1.20852
338.357	2.04316
338.571	1.25652
338.785	2.60259
338.999	1.67166
339.213	1.89187
339.427	0.76958
339.641	3.10307
339.855	1.91236
340.069	1.72181
340.283	2.97941
340.497	3.61649
340.711	2.33454
340.924	1.58429
341.138	1.30276
341.352	0.92381
341.566	2.34105
341.78	0.6355
341.993	1.52392
342.207	1.19686
342.421	2.44412
342.635	2.02312
342.848	1.5663
343.062	0.24576
343.276	1.34763
343.49	3.92437
343.703	1.61849
343.917	2.73266
344.131	2.83911
344.344	1.30056
344.558	1.5678
344.771	1.16713
344.985	3.24544
345.199	3.34424
345.412	2.18798
345.626	2.29134
345.839	0.64106
346.053	0.89797
346.266	1.17576
346.48	2.61348
346.693	2.38213
346.907	2.6385
347.12	1.39677
347.334	2.11809
347.547	2.52086
347.76	1.82341
347.974	2.90913
348.187	2.32797
348.401	1.805
348.614	1.49861
348.827	1.86851
349.041	2.54945
349.254	0.70625
349.467	1.86396
349.681	0.93461
349.894	1.38985
350.107	3.10874
350.32	3.40493
350.534	0.61516
350.747	1.66819
350.96	1.37741
351.173	1.5458
351.386	1.69448
351.6	1.51474
351.813	1.4735
352.026	1.93878
352.239	1.19758
352.452	1.62742
352.665	2.72006
352.878	1.76497
353.092	3.75769
353.305	2.44269
353.518	2.23253
353.731	1.11359
353.944	3.06126
354.157	1.33993
354.37	1.23748
354.583	0.96502
354.796	0.8275
355.009	2.78369
355.222	1.93011
355.435	1.98698
355.647	2.87409
355.86	1.21681
356.073	1.9764
356.286	1.5197
356.499	2.62194
356.712	2.24229
356.925	2.27621
357.138	2.73219
357.35	1.20801
357.563	1.63386
357.776	2.13297
357.989	1.87367
358.201	2.26614
358.414	1.95403
358.627	3.06153
358.84	1.71258
359.052	1.04962
359.265	1.21095
359.478	2.8736
359.69	-0.04879
359.903	2.56956
360.116	2.69441
360.328	0.77032
360.541	2.63539
360.753	1.39532
360.966	1.60267
361.179	1.72142
361.391	1.61033
361.604	1.21374
361.816	1.527
362.029	1.4499
362.241	1.28004
362.454	1.6579
362.666	1.26845
362.879	2.11634
363.091	1.65118
363.304	1.51451
363.516	1.68182
363.728	1.04537
363.941	2.33132
364.153	1.78001
364.366	0.44765
364.578	1.06782
364.79	2.33344
365.003	2.06559
365.215	1.65693
365.427	2.4501
365.639	2.86154
365.852	2.30506
366.064	3.45682
366.276	1.73308
366.488	2.45683
366.701	1.72377
366.913	1.83094
367.125	1.99342
367.337	1.4851
367.549	1.79508
367.762	1.92952
367.974	1.90743
368.186	1.70333
368.398	2.77125
368.61	2.48219
368.822	2.47942
369.034	1.95692
369.246	2.75041
369.458	4.02722
369.67	1.27335
369.882	3.45773
370.094	0.51128
370.306	3.21041
370.518	1.80243
370.73	1.43984
370.942	1.67404
371.154	2.04034
371.366	1.70661
371.578	2.50122
371.79	1.8871
372.002	3.06319
372.214	3.63531
372.425	2.12011
372.637	3.37339
372.849	2.3839
373.061	0.52863
373.273	2.63752
373.484	2.67251
373.696	2.87313
373.908	0.62392
374.12	2.88869
374.331	2.64918
374.543	1.71677
374.755	1.37293
374.967	2.24692
375.178	2.94166
375.39	2.12339
375.602	2.4569
375.813	1.30246
376.025	1.46936
376.236	2.31656
376.448	2.50893
376.66	2.23289
376.871	2.19107
377.083	2.98014
377.294	3.63172
377.506	2.04286
377.717	3.19533
377.929	2.50932
378.14	2.03143
378.352	2.83085
378.563	2.92294
378.775	3.59575
378.986	1.79931
379.197	2.43707
379.409	1.94546
379.62	3.07053
379.832	2.67331
380.043	2.25142
380.254	2.78546
380.466	1.55507
380.677	4.57563
380.888	4.21584
381.1	4.60866
381.311	4.51817
381.522	2.84074
381.733	4.7892
381.945	2.52632
382.156	2.56481
382.367	2.40721
382.578	4.85668
382.789	4.75121
383.001	2.29173
383.212	3.86299
383.423	4.03899
383.634	3.53691
383.845	3.31392
384.056	2.45318
384.267	2.92681
384.478	2.85859
384.69	1.92123
384.901	3.30008
385.112	3.10643
385.323	4.13962
385.534	3.22957
385.745	3.35254
385.956	3.2898
386.167	2.35056
386.378	3.37335
386.588	2.49481
386.799	2.34758
387.01	1.86686
387.221	3.82302
387.432	3.08859
387.643	4.48863
387.854	2.97242
388.065	2.82637
388.275	2.94069
388.486	2.80087
388.697	3.18488
388.908	2.82966
389.119	4.04429
389.329	4.3946
389.54	3.17048
389.751	3.59463
389.962	4.11453
390.172	3.21405
390.383	3.15972
390.594	2.86347
390.804	2.74709
391.015	2.9105
391.226	3.40339
391.436	3.73861
391.647	3.62163
391.858	3.75493
392.068	2.2843
392.279	2.69739
392.489	3.71024
392.7	4.05761
392.91	3.13615
393.121	2.87918
393.331	3.80165
393.542	4.34906
393.752	4.15287
393.963	3.82493
394.173	3.89331
394.384	4.18153
394.594	3.53979
394.804	2.87416
395.015	3.57308
395.225	4.09843
395.436	3.06855
395.646	4.12307
395.856	3.33728
396.067	2.72057
396.277	4.26815
396.487	4.00946
396.697	3.98259
396.908	4.36041
397.118	4.18531
397.328	3.75599
397.538	4.39783
397.749	3.38558
397.959	4.28246
398.169	4.22687
398.379	2.80461
398.589	3.93513
398.8	4.10984
399.01	4.05491
399.22	3.70294
399.43	5.35071
399.64	3.91994
399.85	4.27718
400.06	3.95602
400.27	3.42027
400.48	3.89254
400.69	4.75925
400.9	3.55016
401.11	3.28001
401.32	4.64877
401.53	3.44662
401.74	4.81431
401.95	4.35953
402.16	3.76408
402.37	4.14543
402.58	3.6931
402.79	4.54642
403	4.45574
403.209	3.68174
403.419	4.77951
403.629	3.63309
403.839	4.82529
404.049	4.74922
404.258	3.80292
404.468	3.85114
404.678	4.86952
404.888	5.14482
405.097	4.33784
405.307	4.1827
405.517	4.94514
405.727	4.69243
405.936	4.03617
406.146	4.65208
406.356	5.3319
406.565	4.28363
406.775	4.02127
406.984	4.19443
407.194	5.77249
407.404	4.46878
407.613	4.74337
407.823	5.03172
408.032	5.44973
408.242	5.29167
408.451	4.07906
408.661	4.39682
408.87	5.7004
409.08	3.96825
409.289	4.86603
409.499	4.61621
409.708	4.43593
409.918	3.18836
410.127	4.68645
410.336	5.75616
410.546	5.10831
410.755	4.46006
410.964	4.42431
411.174	3.91532
411.383	4.96371
411.592	4.83668
411.802	4.22113
412.011	5.14195
412.22	4.60943
412.429	5.82642
412.639	5.66946
412.848	5.45718
413.057	5.90982
413.266	5.48977
413.475	5.04642
413.685	5.48254
413.894	5.3364
414.103	5.61774
414.312	5.31159
414.521	4.61015
414.73	5.05913
414.939	6.19826
415.148	5.30108
415.357	5.06278
415.566	4.9711
415.776	4.83442
415.985	4.99586
416.194	5.64845
416.403	6.43354
416.611	4.38309
416.82	4.91964
417.029	5.50231
417.238	4.90053
417.447	4.90547
417.656	5.31365
417.865	5.10152
418.074	5.51645
418.283	5.94359
418.492	6.86494
418.7	6.9962
418.909	8.28561
419.118	6.94563
419.327	7.53439
419.536	7.27971
419.744	7.11506
419.953	8.60014
420.162	8.7224
420.371	7.80884
420.579	8.13716
420.788	9.29298
420.997	9.52075
421.205	9.62922
421.414	9.37499
421.623	9.64875
421.831	8.87014
422.04	9.63614
422.249	8.73822
422.457	9.02977
422.666	8.3407
422.874	9.43123
423.083	9.46129
423.291	9.36472
423.5	9.21114
423.708	9.58001
423.917	10.207
424.125	9.45411
424.334	9.29212
424.542	11.2428
424.751	10.56863
424.959	10.0605
425.167	10.44022
425.376	10.20381
425.584	9.04753
425.793	9.00547
426.001	7.93439
426.209	8.4532
426.418	7.17423
426.626	6.7605
426.834	6.50796
427.042	6.54217
427.251	6.19249
427.459	6.8825
427.667	6.55187
