Data from WindowProjectSample_Transmission__55__00055__0868501948003481.txt Node

Date: Mon May 05 18:17:47 EDT 2025
User: jessi
Spectrometer: SR400872
Trigger mode: 0
Integration Time (sec): 5.000010E-1
Scans to average: 20
Electric dark correction enabled: true
Nonlinearity correction enabled: true
Boxcar width: 0
XAxis mode: Wavelengths
Number of Pixels in Spectrum: 3648
>>>>>Begin Spectral Data<<<<<
184.909	21251.72481
185.132	-4960.40473
185.355	-2953.84732
185.578	-18001.29507
185.801	1490.78594
186.024	10061.40521
186.247	-1660.02406
186.47	1094.69692
186.693	155.57043
186.916	174.81127
187.139	-3591.19066
187.362	3537.87113
187.585	4089.11441
187.808	3582.22586
188.031	42.19155
188.254	-56182.88971
188.476	-750.17298
188.699	6035.40544
188.922	599.83186
189.145	-15157.76944
189.368	-607.55095
189.591	-1159.8431
189.813	2926.10453
190.036	-47253.32216
190.259	-756.82806
190.482	-3999.80082
190.705	6832.38339
190.927	-2465.18622
191.15	12799.55142
191.373	3263.62326
191.595	-8868.73264
191.818	-4081.5753
192.041	-6023.99285
192.263	-3313.86157
192.486	-638.47464
192.709	-3788.03485
192.931	7365.63108
193.154	-27820.54945
193.377	-2693.44042
193.599	-2431.99424
193.822	-8965.59839
194.044	-1905.43334
194.267	1243.01347
194.489	318.30418
194.712	-40913.44641
194.934	-31198.51307
195.157	1149.23527
195.379	1260.23224
195.602	-7010.25419
195.824	-1218.01541
196.047	-8447.29905
196.269	2594.18773
196.492	-6334.04407
196.714	28070.47451
196.936	-8334.75682
197.159	-1110.6108
197.381	1079.79816
197.604	457.20043
197.826	11147.99499
198.048	-9434.87263
198.271	-2710.61668
198.493	7197.94139
198.715	2237.37035
198.938	-438.86902
199.16	6677.8712
199.382	-99733.64001
199.604	2395.77183
199.827	-1037.46158
200.049	-2794.6408
200.271	13733.54473
200.493	1191.50644
200.715	-36938.90422
200.938	-6026.44287
201.16	-4044.08538
201.382	20146.9953
201.604	2240.51842
201.826	2234.5084
202.048	-1890.27498
202.27	-1841.46404
202.492	-35762.57101
202.715	2824.85956
202.937	-4325.28069
203.159	-5791.82512
203.381	1394.34169
203.603	6443.94078
203.825	6060.89542
204.047	2144.87723
204.269	-2687.23348
204.491	2158.00701
204.713	5771.2127
204.935	-464792.05551
205.156	1135.21194
205.378	-2878.16534
205.6	1660.04765
205.822	148764.43926
206.044	-905.44875
206.266	1535.59516
206.488	3797.64412
206.71	-5087.20811
206.932	1079.90893
207.153	11936.87257
207.375	-6743.3904
207.597	-36605.18818
207.819	-2723.02262
208.041	2381.21709
208.262	455.65764
208.484	659.30327
208.706	-766.00576
208.927	-840.66748
209.149	534.60342
209.371	-2877.39606
209.593	-275.68443
209.814	-783.49117
210.036	519.59717
210.258	-574.43661
210.479	1718.66219
210.701	1723.73524
210.922	3048.54217
211.144	-3804.60746
211.366	2012.28738
211.587	6973.37083
211.809	-7801.09696
212.03	2252.69368
212.252	448.37486
212.473	2116.38394
212.695	-6365.53187
212.916	2944.82702
213.138	-672.20539
213.359	3619.00135
213.581	5016.88406
213.802	-795.23812
214.024	1088.40338
214.245	1889.10941
214.466	2827.19922
214.688	-3041.53837
214.909	-1222.24266
215.131	-1684.09032
215.352	-3034.36533
215.573	14404.17287
215.795	5210.54086
216.016	5174.13808
216.237	774.46596
216.459	3302.02511
216.68	1705.3585
216.901	4871.19326
217.122	-3056.91865
217.344	-11444.98239
217.565	3262.57879
217.786	8728.15545
218.007	14876.36732
218.228	-576.62814
218.45	5509.23136
218.671	694.11244
218.892	36617.41338
219.113	1381.76847
219.334	-356.19408
219.555	8722.7129
219.776	2927.52731
219.997	22019.76727
220.219	2680.1389
220.44	-10592.89616
220.661	455.98897
220.882	1406.09831
221.103	-982.60671
221.324	2098.29634
221.545	2211.90943
221.766	-8679.36969
221.987	923.9936
222.208	1628.06997
222.429	4264.71482
222.65	175.62317
222.87	18988.65844
223.091	703.33633
223.312	533.60465
223.533	1334.84467
223.754	1424.2438
223.975	1356.31033
224.196	1928.41518
224.417	1273.28357
224.637	540.35312
224.858	26.24257
225.079	1043.83421
225.3	649.77461
225.521	3717.14242
225.741	442.57395
225.962	493.40611
226.183	141.32075
226.404	648.19649
226.624	434.59822
226.845	580.43145
227.066	387.63689
227.286	239.38759
227.507	122.25649
227.728	110.77563
227.948	225.7167
228.169	72.54519
228.389	86.71359
228.61	44.09614
228.831	61.42154
229.051	2.41507
229.272	36.76054
229.492	54.39661
229.713	12.61152
229.933	36.21076
230.154	29.63281
230.374	52.29432
230.595	37.50516
230.815	21.9563
231.036	35.75704
231.256	-8.26703
231.477	64.98803
231.697	37.14835
231.917	37.65708
232.138	55.18879
232.358	101.36667
232.579	100.89298
232.799	17.42082
233.019	96.57461
233.24	113.06938
233.46	36.51141
233.68	60.46374
233.901	42.54967
234.121	21.351
234.341	9.92598
234.561	-3.73823
234.782	17.07382
235.002	66.60867
235.222	-3.90442
235.442	62.36008
235.662	30.86083
235.883	58.99915
236.103	47.98841
236.323	34.32651
236.543	29.06064
236.763	38.05657
236.983	39.64093
237.203	38.147
237.423	57.35686
237.643	84.12201
237.864	69.24573
238.084	17.99993
238.304	23.57133
238.524	41.52556
238.744	38.30712
238.964	70.23635
239.184	60.53967
239.404	62.60256
239.624	34.40903
239.843	57.48548
240.063	34.28222
240.283	21.11249
240.503	24.18872
240.723	23.92234
240.943	13.58742
241.163	18.82599
241.383	14.25961
241.603	6.91875
241.822	9.17869
242.042	6.07146
242.262	8.06967
242.482	9.19971
242.702	10.39023
242.921	2.66737
243.141	6.23539
243.361	6.17727
243.581	9.25289
243.8	6.9081
244.02	5.46483
244.24	8.78434
244.459	8.92329
244.679	16.38744
244.899	10.90897
245.118	12.48843
245.338	11.06602
245.558	13.25011
245.777	8.53529
245.997	10.20254
246.216	9.95372
246.436	6.1262
246.655	4.59274
246.875	3.03717
247.094	6.13072
247.314	1.99994
247.533	3.38087
247.753	4.18775
247.972	3.33716
248.192	1.05211
248.411	1.77769
248.631	3.47176
248.85	4.43451
249.07	3.76889
249.289	5.49365
249.508	4.78479
249.728	6.96896
249.947	6.66737
250.166	8.83382
250.386	3.99312
250.605	6.61777
250.824	9.99179
251.044	6.91861
251.263	28.08394
251.482	14.17479
251.701	11.35243
251.921	-0.22779
252.14	2.85647
252.359	3.25862
252.578	10.04924
252.798	2.93657
253.017	8.50778
253.236	3.82262
253.455	5.42945
253.674	9.66281
253.893	4.83076
254.112	7.57026
254.331	10.62752
254.551	7.93148
254.77	3.23882
254.989	13.15513
255.208	8.82759
255.427	14.08159
255.646	10.3947
255.865	21.23162
256.084	8.91023
256.303	10.02444
256.522	13.32525
256.741	2.94135
256.96	2.42289
257.179	7.08976
257.397	10.66367
257.616	5.67009
257.835	5.69423
258.054	14.77474
258.273	10.22863
258.492	10.47463
258.711	6.51031
258.93	2.88719
259.148	4.42931
259.367	4.41419
259.586	5.59979
259.805	2.1471
260.023	5.03455
260.242	3.85374
260.461	2.60783
260.68	1.19766
260.898	4.23656
261.117	1.34459
261.336	0.86672
261.554	3.24446
261.773	3.07545
261.992	0.58987
262.21	3.08774
262.429	3.35348
262.648	6.91699
262.866	7.89807
263.085	5.37787
263.303	4.94795
263.522	8.33808
263.74	8.70332
263.959	15.36174
264.178	6.83016
264.396	6.32154
264.615	4.57116
264.833	9.92809
265.051	8.31071
265.27	10.5881
265.488	10.96265
265.707	6.03713
265.925	10.45328
266.144	4.64254
266.362	5.61635
266.58	5.03971
266.799	4.70755
267.017	5.99938
267.235	4.98004
267.454	3.10112
267.672	1.75151
267.89	3.81221
268.109	4.23401
268.327	4.30153
268.545	0.7478
268.763	4.04601
268.982	1.29743
269.2	4.00472
269.418	2.86768
269.636	1.89589
269.854	4.64028
270.073	2.99644
270.291	1.63231
270.509	1.80671
270.727	4.27729
270.945	6.97396
271.163	6.84694
271.381	1.36826
271.599	2.94645
271.817	5.30091
272.036	1.72277
272.254	3.00592
272.472	2.21781
272.69	2.38048
272.908	2.13459
273.126	4.44191
273.344	5.14198
273.562	1.61933
273.779	2.4441
273.997	3.60546
274.215	3.95886
274.433	2.78582
274.651	4.26603
274.869	4.51827
275.087	2.58394
275.305	4.02579
275.523	2.53372
275.74	2.7612
275.958	5.0743
276.176	7.743
276.394	2.47911
276.612	3.08977
276.829	3.11902
277.047	2.64003
277.265	2.66211
277.483	3.29398
277.7	4.11163
277.918	3.26497
278.136	6.01938
278.353	2.72589
278.571	1.49857
278.789	4.23956
279.006	0.72456
279.224	2.71229
279.442	5.1308
279.659	3.35179
279.877	2.49133
280.094	5.69868
280.312	0.87183
280.529	3.30528
280.747	0.83792
280.964	2.56487
281.182	5.73269
281.399	2.57778
281.617	3.62342
281.834	2.47655
282.052	1.82554
282.269	3.09573
282.487	2.39817
282.704	1.96718
282.921	2.18989
283.139	3.14188
283.356	3.86723
283.574	3.59806
283.791	1.76485
284.008	5.4597
284.226	2.81879
284.443	3.11774
284.66	4.24856
284.877	3.26057
285.095	1.89306
285.312	1.54018
285.529	0.8655
285.746	0.7291
285.964	1.99131
286.181	1.41451
286.398	1.89779
286.615	2.55896
286.832	2.48026
287.05	0.51322
287.267	1.74137
287.484	1.80834
287.701	2.51264
287.918	2.58003
288.135	2.49471
288.352	1.23249
288.569	1.23273
288.786	2.25129
289.003	2.01255
289.22	2.93171
289.437	1.48372
289.654	2.81718
289.871	2.84588
290.088	2.77981
290.305	2.04526
290.522	1.61815
290.739	1.96846
290.956	3.0569
291.173	3.51339
291.39	3.38095
291.607	2.26654
291.824	1.62952
292.04	1.21238
292.257	2.71282
292.474	3.01527
292.691	1.74481
292.908	0.87154
293.125	1.60518
293.341	1.11867
293.558	4.66296
293.775	1.84064
293.992	1.81305
294.208	0.78952
294.425	1.18014
294.642	1.73307
294.858	2.41155
295.075	0.59338
295.292	1.90618
295.508	2.16086
295.725	3.91985
295.942	1.59958
296.158	1.16076
296.375	1.99379
296.591	1.47373
296.808	1.66688
297.024	1.9067
297.241	2.14908
297.458	2.32723
297.674	0.11858
297.891	1.7602
298.107	1.40468
298.323	1.09033
298.54	3.01454
298.756	1.18322
298.973	0.6073
299.189	2.94939
299.406	1.10907
299.622	2.71896
299.838	2.57087
300.055	2.59053
300.271	0.51594
300.487	0.9487
300.704	1.19156
300.92	0.64702
301.136	4.08836
301.353	2.51141
301.569	1.84336
301.785	2.0932
302.001	2.57635
302.218	2.20057
302.434	2.22027
302.65	0.73682
302.866	1.52439
303.083	3.85104
303.299	3.64845
303.515	1.97607
303.731	2.06841
303.947	0.55304
304.163	1.22928
304.379	2.05046
304.595	2.36735
304.812	1.22531
305.028	1.22914
305.244	1.70251
305.46	2.58578
305.676	2.60263
305.892	3.06139
306.108	2.24662
306.324	1.51384
306.54	3.65325
306.756	2.40461
306.972	2.40531
307.187	1.85706
307.403	3.19946
307.619	1.64269
307.835	3.01913
308.051	3.4503
308.267	0.92095
308.483	2.95651
308.699	2.46223
308.914	1.90246
309.13	1.8389
309.346	0.65052
309.562	1.07327
309.778	0.72836
309.993	2.40506
310.209	1.88636
310.425	0.85606
310.641	1.72095
310.856	1.0652
311.072	0.98386
311.288	1.71556
311.503	1.97866
311.719	0.40505
311.935	0.28209
312.15	2.29938
312.366	1.86024
312.581	2.20641
312.797	1.88641
313.013	2.57386
313.228	1.31552
313.444	1.75822
313.659	1.29856
313.875	2.44496
314.09	1.83249
314.306	3.0977
314.521	2.54919
314.737	2.60172
314.952	1.8793
315.168	1.89765
315.383	2.21195
315.599	1.67682
315.814	1.58632
316.029	2.42052
316.245	0.93197
316.46	0.56166
316.675	3.08093
316.891	3.45258
317.106	4.56146
317.321	2.21128
317.537	2.47195
317.752	2.63886
317.967	2.67291
318.183	1.17524
318.398	1.66817
318.613	2.7815
318.828	3.22717
319.043	2.59319
319.259	1.81966
319.474	2.11577
319.689	3.08177
319.904	0.48616
320.119	2.54025
320.334	2.31178
320.549	1.71307
320.765	2.93636
320.98	2.19085
321.195	2.59576
321.41	1.94025
321.625	2.76089
321.84	3.57497
322.055	3.64873
322.27	1.65059
322.485	1.13186
322.7	2.40256
322.915	2.84976
323.13	1.26969
323.345	3.49605
323.56	2.67874
323.775	2.68195
323.989	2.40451
324.204	2.34005
324.419	2.9955
324.634	0.98416
324.849	1.9233
325.064	5.21342
325.279	2.90082
325.493	2.45284
325.708	2.86999
325.923	1.33625
326.138	1.57534
326.352	3.44778
326.567	2.94627
326.782	1.71336
326.997	1.51638
327.211	2.58007
327.426	2.37778
327.641	1.68799
327.855	0.80659
328.07	2.37092
328.285	3.44372
328.499	1.55273
328.714	2.33873
328.928	2.65792
329.143	1.98554
329.358	3.01428
329.572	2.95602
329.787	3.24773
330.001	4.33037
330.216	0.90435
330.43	3.80822
330.645	3.5246
330.859	2.92065
331.074	1.60197
331.288	2.19953
331.503	3.25465
331.717	1.22752
331.931	2.33663
332.146	2.32938
332.36	3.75402
332.575	2.54668
332.789	2.3983
333.003	2.41999
333.218	2.6542
333.432	1.76063
333.646	2.87146
333.86	3.77356
334.075	3.58872
334.289	1.65217
334.503	1.30976
334.717	2.58948
334.932	2.60925
335.146	3.17881
335.36	1.84358
335.574	2.88983
335.788	2.69279
336.003	3.05518
336.217	2.72082
336.431	2.75746
336.645	1.88015
336.859	1.3029
337.073	2.099
337.287	2.49456
337.501	1.28917
337.715	2.55359
337.929	2.98741
338.143	1.14221
338.357	2.11472
338.571	1.58111
338.785	2.74368
338.999	1.96318
339.213	1.8137
339.427	1.04132
339.641	3.42222
339.855	1.95429
340.069	1.73846
340.283	3.02326
340.497	3.78412
340.711	2.59216
340.924	2.14117
341.138	1.29588
341.352	1.20225
341.566	2.49766
341.78	0.97027
341.993	1.94456
342.207	1.43299
342.421	2.43332
342.635	2.07918
342.848	1.81451
343.062	0.57386
343.276	1.75031
343.49	3.97881
343.703	1.69427
343.917	3.19884
344.131	3.13015
344.344	1.66634
344.558	1.92397
344.771	1.25557
344.985	3.73609
345.199	3.62395
345.412	2.49222
345.626	2.56764
345.839	0.95745
346.053	1.43291
346.266	1.3749
346.48	2.83473
346.693	2.61339
346.907	2.52018
347.12	1.52066
347.334	2.55309
347.547	2.59804
347.76	2.06109
347.974	3.259
348.187	2.56108
348.401	2.00445
348.614	1.75311
348.827	1.94965
349.041	2.77084
349.254	1.08982
349.467	1.9646
349.681	1.31467
349.894	1.76158
350.107	3.32998
350.32	3.70513
350.534	1.17599
350.747	1.98336
350.96	1.60655
351.173	1.87101
351.386	2.03892
351.6	1.87439
351.813	2.0307
352.026	2.0723
352.239	1.30438
352.452	2.09271
352.665	3.13181
352.878	2.3734
353.092	4.04845
353.305	2.86808
353.518	2.50439
353.731	1.61889
353.944	3.26528
354.157	1.96533
354.37	1.74481
354.583	1.54775
354.796	1.21834
355.009	3.11979
355.222	2.55874
355.435	2.34536
355.647	3.09882
355.86	1.71441
356.073	2.38593
356.286	2.04196
356.499	3.04326
356.712	2.68736
356.925	2.89767
357.138	2.92861
357.35	1.83257
357.563	2.0776
357.776	2.56463
357.989	2.27528
358.201	2.79647
358.414	2.60934
358.627	3.42387
358.84	2.23953
359.052	1.51878
359.265	1.92813
359.478	3.25685
359.69	0.72425
359.903	2.95892
360.116	3.1866
360.328	1.36699
360.541	3.1258
360.753	1.76273
360.966	2.13793
361.179	2.26398
361.391	2.18435
361.604	1.96338
361.816	2.2009
362.029	2.08264
362.241	1.87716
362.454	2.162
362.666	1.87173
362.879	2.74165
363.091	2.26952
363.304	1.96284
363.516	2.39945
363.728	1.69941
363.941	2.89929
364.153	2.39109
364.366	1.18734
364.578	1.77581
364.79	2.77481
365.003	2.60827
365.215	2.11821
365.427	2.97789
365.639	3.31968
365.852	2.75229
366.064	4.25096
366.276	2.42253
366.488	2.90565
366.701	2.43226
366.913	2.53508
367.125	2.45226
367.337	2.11704
367.549	2.28852
367.762	2.76578
367.974	2.62665
368.186	2.36055
368.398	3.3734
368.61	3.16791
368.822	3.14907
369.034	2.54626
369.246	3.2985
369.458	4.97638
369.67	2.14202
369.882	4.06669
370.094	1.59252
370.306	3.99661
370.518	2.67993
370.73	2.42941
370.942	2.3747
371.154	2.83195
371.366	2.66091
371.578	3.1535
371.79	2.55188
372.002	3.72078
372.214	4.40438
372.425	2.92269
372.637	3.89648
372.849	3.24962
373.061	1.63846
373.273	3.36009
373.484	3.26768
373.696	3.67748
373.908	1.71321
374.12	3.85883
374.331	3.37372
374.543	2.57013
374.755	2.44116
374.967	3.17613
375.178	3.65363
375.39	2.94979
375.602	3.39755
375.813	2.21877
376.025	2.56905
376.236	3.3773
376.448	3.54108
376.66	3.11209
376.871	3.12022
377.083	4.17767
377.294	4.5446
377.506	3.10301
377.717	4.31456
377.929	3.59191
378.14	3.20475
378.352	3.7102
378.563	3.87939
378.775	4.45047
378.986	2.91513
379.197	3.46919
379.409	3.01827
379.62	4.08842
379.832	3.9915
380.043	3.52393
380.254	3.80282
380.466	2.97096
380.677	5.66406
380.888	5.06163
381.1	5.44627
381.311	5.53501
381.522	3.97633
381.733	5.78884
381.945	3.73886
382.156	3.86014
382.367	3.55935
382.578	5.83699
382.789	5.70452
383.001	3.65706
383.212	5.09982
383.423	5.12855
383.634	4.95382
383.845	4.62259
384.056	3.95198
384.267	4.34431
384.478	4.30619
384.69	3.5499
384.901	4.59195
385.112	4.49167
385.323	5.54934
385.534	4.77574
385.745	4.63547
385.956	4.60574
386.167	3.91342
386.378	4.79809
386.588	4.04177
386.799	4.06926
387.01	3.60578
387.221	5.19172
387.432	4.59997
387.643	5.78252
387.854	4.52214
388.065	4.4898
388.275	4.68292
388.486	4.41142
388.697	4.79702
388.908	4.52617
389.119	5.58684
389.329	5.8334
389.54	4.94904
389.751	5.18537
389.962	5.94312
390.172	5.11477
390.383	4.90217
390.594	4.6519
390.804	4.82787
391.015	4.93144
391.226	5.41378
391.436	5.64892
391.647	5.59131
391.858	5.8007
392.068	4.46109
392.279	4.80156
392.489	5.62867
392.7	6.17144
392.91	5.15853
393.121	5.14138
393.331	5.88619
393.542	6.31458
393.752	6.17062
393.963	5.97607
394.173	5.95446
394.384	6.13771
394.594	5.91633
394.804	5.13479
395.015	6.04956
395.225	6.25482
395.436	5.38475
395.646	6.17437
395.856	5.71723
396.067	5.16812
396.277	6.50943
396.487	6.26895
396.697	6.35647
396.908	6.40934
397.118	6.50286
397.328	6.32486
397.538	6.82097
397.749	5.85599
397.959	6.92833
398.169	6.59702
398.379	5.56667
398.589	6.70535
398.8	6.58246
399.01	6.59589
399.22	6.31839
399.43	7.8605
399.64	6.55792
399.85	6.98586
400.06	6.75382
400.27	6.254
400.48	6.61638
400.69	7.59161
400.9	6.44849
401.11	6.20413
401.32	7.3372
401.53	6.45382
401.74	7.8335
401.95	7.18686
402.16	6.66816
402.37	7.20566
402.58	6.85694
402.79	7.40176
403	7.84582
403.209	6.82006
403.419	8.00865
403.629	6.78371
403.839	8.05604
404.049	7.92589
404.258	7.27625
404.468	7.00614
404.678	7.71661
404.888	8.2556
405.097	7.30031
405.307	7.51147
405.517	8.01717
405.727	7.92
405.936	7.56876
406.146	7.89793
406.356	8.54765
406.565	7.73695
406.775	7.57552
406.984	7.48874
407.194	8.933
407.404	7.79178
407.613	8.25059
407.823	8.34239
408.032	8.49817
408.242	8.47457
408.451	7.76349
408.661	7.96125
408.87	9.14344
409.08	7.66144
409.289	8.28489
409.499	8.35345
409.708	8.22901
409.918	7.02585
410.127	8.53796
410.336	9.27926
410.546	8.78006
410.755	8.1404
410.964	8.18375
411.174	7.74596
411.383	8.7398
411.592	8.60308
411.802	7.87401
412.011	8.82697
412.22	8.28412
412.429	9.55626
412.639	9.3773
412.848	9.03933
413.057	9.3079
413.266	9.2436
413.475	8.67157
413.685	8.9562
413.894	9.3312
414.103	9.42687
414.312	9.36824
414.521	8.57185
414.73	8.88738
414.939	10.17516
415.148	9.33426
415.357	9.16993
415.566	9.00559
415.776	8.83388
415.985	8.97804
416.194	9.6474
416.403	10.49767
416.611	8.63856
416.82	9.2633
417.029	9.60984
417.238	9.24094
417.447	9.1703
417.656	9.50981
417.865	9.25885
418.074	9.63984
418.283	9.70897
418.492	10.40192
418.7	10.20039
418.909	11.1615
419.118	10.32386
419.327	10.70188
419.536	10.63616
419.744	10.76087
419.953	11.97154
420.162	12.19466
420.371	11.79002
420.579	12.45541
420.788	13.23547
420.997	13.30888
421.205	13.69707
421.414	13.51212
421.623	13.59195
421.831	13.22385
422.04	13.69782
422.249	12.86606
422.457	13.14135
422.666	12.32251
422.874	13.16795
423.083	13.25617
423.291	13.30323
423.5	13.13073
423.708	13.67955
423.917	14.14342
424.125	13.73807
424.334	13.62725
424.542	15.17802
424.751	14.65857
424.959	14.26415
425.167	14.25255
425.376	14.11152
425.584	12.87557
425.793	12.74492
426.001	11.83799
426.209	11.79545
426.418	10.71326
