Data from WindowProjectSample_Transmission__52__00052__011903772825754244.txt Node

Date: Mon May 05 18:11:57 EDT 2025
User: jessi
Spectrometer: SR400872
Trigger mode: 0
Integration Time (sec): 5.000010E-1
Scans to average: 20
Electric dark correction enabled: true
Nonlinearity correction enabled: true
Boxcar width: 0
XAxis mode: Wavelengths
Number of Pixels in Spectrum: 3648
>>>>>Begin Spectral Data<<<<<
184.909	20524.0955
185.132	-5034.69598
185.355	-2929.24386
185.578	-17732.09507
185.801	1423.93864
186.024	10058.69917
186.247	-1651.0273
186.47	1146.41679
186.693	413.24226
186.916	328.30448
187.139	-3666.99946
187.362	3567.49967
187.585	4237.70496
187.808	3582.33471
188.031	79.31532
188.254	-52064.33035
188.476	-711.21092
188.699	6065.06876
188.922	763.03278
189.145	-14738.25551
189.368	-704.25789
189.591	-1385.4486
189.813	2983.08673
190.036	-50932.6286
190.259	-845.83242
190.482	-4222.90072
190.705	7181.88032
190.927	-2416.42535
191.15	13078.3668
191.373	3321.9566
191.595	-8634.91643
191.818	-4144.78077
192.041	-5158.09194
192.263	-3501.60643
192.486	-671.20053
192.709	-3774.81852
192.931	7782.39855
193.154	-28507.42882
193.377	-2750.56611
193.599	-2540.0321
193.822	-9060.58288
194.044	-1942.06983
194.267	1110.19088
194.489	250.85777
194.712	-42328.64903
194.934	-30562.17784
195.157	1235.35914
195.379	1305.48886
195.602	-6544.57524
195.824	-1326.08527
196.047	-8146.72516
196.269	2774.20654
196.492	-6364.17127
196.714	28014.29283
196.936	-8283.04685
197.159	-1177.42172
197.381	1149.21987
197.604	537.42566
197.826	12158.9199
198.048	-10409.95966
198.271	-2791.86883
198.493	7295.77048
198.715	2204.78565
198.938	-517.09709
199.16	7063.94762
199.382	-103295.28339
199.604	2403.04066
199.827	-1055.31002
200.049	-2835.68214
200.271	13783.43569
200.493	1201.69362
200.715	-39317.34903
200.938	-5928.44658
201.16	-4054.41869
201.382	19657.18342
201.604	2316.42455
201.826	2249.93038
202.048	-1866.28153
202.27	-1958.49322
202.492	-35378.38795
202.715	2959.4426
202.937	-4376.84449
203.159	-6304.92374
203.381	1441.59149
203.603	6773.64696
203.825	6037.90773
204.047	2131.23495
204.269	-2691.96654
204.491	2155.31332
204.713	6046.14771
204.935	-464593.46565
205.156	1091.77646
205.378	-2908.94455
205.6	1678.4423
205.822	150661.84808
206.044	-1031.59613
206.266	1574.11943
206.488	4682.45477
206.71	-4981.18493
206.932	1037.14294
207.153	11918.4396
207.375	-6847.04939
207.597	-37571.47755
207.819	-2835.10128
208.041	2454.48112
208.262	464.88341
208.484	667.27434
208.706	-776.29391
208.927	-725.67531
209.149	527.29388
209.371	-2933.75855
209.593	-285.45609
209.814	-745.27015
210.036	489.61758
210.258	-605.77083
210.479	1661.54188
210.701	1596.03047
210.922	3292.40916
211.144	-3758.50002
211.366	2119.87288
211.587	7915.56458
211.809	-8050.99987
212.03	2285.66717
212.252	454.1506
212.473	2129.6643
212.695	-6514.62011
212.916	2708.63121
213.138	-591.07069
213.359	3772.94789
213.581	4942.9328
213.802	-633.54978
214.024	1124.19731
214.245	1981.82384
214.466	3678.11556
214.688	-3155.14795
214.909	-1158.72964
215.131	-1662.65166
215.352	-2964.39407
215.573	14374.18673
215.795	5224.31858
216.016	5238.27158
216.237	819.38908
216.459	3573.18575
216.68	1825.05365
216.901	4896.77702
217.122	-3261.92159
217.344	-11179.06981
217.565	3434.76949
217.786	8816.61523
218.007	14846.68007
218.228	-776.01554
218.45	5887.7824
218.671	700.52151
218.892	36858.03245
219.113	1527.02674
219.334	-395.21715
219.555	9193.43265
219.776	3033.94338
219.997	22723.60812
220.219	2621.04739
220.44	-10052.13722
220.661	450.43452
220.882	1416.22183
221.103	-998.22269
221.324	2353.01853
221.545	2285.80364
221.766	-8768.52079
221.987	876.91581
222.208	1693.98668
222.429	4174.40249
222.65	268.99027
222.87	20104.74758
223.091	710.17138
223.312	595.62132
223.533	1364.9927
223.754	1445.63977
223.975	1379.52724
224.196	1886.33704
224.417	1309.78519
224.637	632.95504
224.858	68.69321
225.079	1032.36478
225.3	646.70579
225.521	3777.84011
225.741	458.83699
225.962	520.10279
226.183	135.89835
226.404	663.27574
226.624	419.77443
226.845	601.89503
227.066	412.43912
227.286	242.93393
227.507	132.49962
227.728	111.59707
227.948	230.31017
228.169	75.46602
228.389	86.3417
228.61	45.2553
228.831	62.44339
229.051	2.95453
229.272	38.10464
229.492	55.931
229.713	13.60383
229.933	37.70344
230.154	33.09428
230.374	52.92435
230.595	39.20272
230.815	20.62309
231.036	37.84501
231.256	-7.09651
231.477	66.51092
231.697	37.83732
231.917	39.60696
232.138	55.12752
232.358	102.09263
232.579	103.44536
232.799	16.22809
233.019	100.20387
233.24	111.08503
233.46	40.35232
233.68	62.40624
233.901	41.64658
234.121	25.39753
234.341	10.8735
234.561	-4.1397
234.782	22.44345
235.002	67.04805
235.222	-4.80819
235.442	64.98712
235.662	31.34847
235.883	60.36646
236.103	48.41416
236.323	34.53274
236.543	28.86119
236.763	40.03037
236.983	40.3269
237.203	40.0698
237.423	61.98728
237.643	85.72514
237.864	74.50719
238.084	17.79838
238.304	25.93634
238.524	43.56566
238.744	40.44859
238.964	72.40919
239.184	60.85692
239.404	65.61111
239.624	33.68174
239.843	60.52743
240.063	36.50817
240.283	21.93071
240.503	25.08352
240.723	25.39962
240.943	14.14382
241.163	19.63476
241.383	14.90718
241.603	7.16918
241.822	9.86755
242.042	6.02937
242.262	8.06687
242.482	9.5285
242.702	10.59959
242.921	2.8
243.141	6.43601
243.361	6.17897
243.581	9.01507
243.8	6.78665
244.02	5.559
244.24	9.89627
244.459	8.70072
244.679	17.3661
244.899	11.13232
245.118	13.31416
245.338	11.45679
245.558	13.73844
245.777	8.05093
245.997	10.25684
246.216	10.33556
246.436	6.25822
246.655	4.63671
246.875	3.18492
247.094	6.19238
247.314	2.07003
247.533	3.55502
247.753	4.29513
247.972	3.19495
248.192	1.18172
248.411	1.74211
248.631	3.40553
248.85	4.61301
249.07	3.67386
249.289	5.62143
249.508	4.82198
249.728	7.58536
249.947	6.89655
250.166	8.45565
250.386	4.33801
250.605	7.09944
250.824	10.04799
251.044	7.49606
251.263	28.4312
251.482	14.18771
251.701	11.78678
251.921	-0.41499
252.14	3.3117
252.359	3.96763
252.578	9.66824
252.798	3.45807
253.017	9.18306
253.236	4.13231
253.455	5.54385
253.674	9.99421
253.893	4.65994
254.112	7.76057
254.331	11.38602
254.551	9.01011
254.77	3.20267
254.989	13.03405
255.208	9.906
255.427	15.40731
255.646	11.71616
255.865	21.17658
256.084	8.86437
256.303	10.65272
256.522	13.61027
256.741	3.54922
256.96	2.50942
257.179	8.33017
257.397	10.72906
257.616	5.88068
257.835	6.15485
258.054	15.26717
258.273	10.46801
258.492	11.04188
258.711	6.59914
258.93	3.04337
259.148	4.68663
259.367	4.57906
259.586	5.53761
259.805	2.18977
260.023	5.26139
260.242	3.98205
260.461	2.75391
260.68	1.33186
260.898	4.49477
261.117	1.34408
261.336	0.87427
261.554	3.42054
261.773	3.26291
261.992	0.77824
262.21	3.2796
262.429	3.44845
262.648	7.18645
262.866	8.10102
263.085	5.55244
263.303	4.69162
263.522	8.23048
263.74	8.62554
263.959	15.32285
264.178	7.06624
264.396	6.30659
264.615	4.56395
264.833	10.34623
265.051	9.13464
265.27	10.19668
265.488	11.05687
265.707	6.40968
265.925	10.96025
266.144	4.90432
266.362	5.67175
266.58	5.40762
266.799	5.36821
267.017	5.99892
267.235	5.36305
267.454	3.31526
267.672	1.6462
267.89	4.0094
268.109	4.23503
268.327	4.34778
268.545	0.82323
268.763	4.2304
268.982	1.21954
269.2	4.50824
269.418	2.90823
269.636	1.78589
269.854	4.81558
270.073	2.99704
270.291	1.936
270.509	1.78744
270.727	4.49569
270.945	7.11543
271.163	7.13017
271.381	1.45366
271.599	3.27066
271.817	5.28025
272.036	1.70963
272.254	3.04552
272.472	2.39886
272.69	2.42644
272.908	2.27559
273.126	4.51481
273.344	5.09478
273.562	1.77032
273.779	2.50764
273.997	3.80389
274.215	4.09478
274.433	2.70215
274.651	4.26134
274.869	4.62875
275.087	2.95547
275.305	3.91865
275.523	2.50732
275.74	2.91625
275.958	5.18906
276.176	8.34879
276.394	2.46889
276.612	3.2915
276.829	3.09345
277.047	2.56097
277.265	3.06294
277.483	3.51466
277.7	4.23118
277.918	3.53793
278.136	6.33519
278.353	2.96071
278.571	1.93916
278.789	4.2655
279.006	1.04417
279.224	2.96628
279.442	5.0795
279.659	3.47401
279.877	2.40623
280.094	5.83686
280.312	1.13263
280.529	3.30252
280.747	0.92935
280.964	2.64049
281.182	6.01079
281.399	2.61428
281.617	3.78538
281.834	2.42808
282.052	2.00192
282.269	3.17267
282.487	2.61438
282.704	2.15682
282.921	2.29184
283.139	3.36805
283.356	3.81731
283.574	3.73932
283.791	1.93278
284.008	5.52876
284.226	2.90806
284.443	3.15191
284.66	4.19276
284.877	3.38654
285.095	2.0531
285.312	1.63519
285.529	0.88938
285.746	0.76509
285.964	1.99134
286.181	1.38711
286.398	1.94654
286.615	2.55124
286.832	2.54043
287.05	0.40253
287.267	1.80456
287.484	1.81187
287.701	2.55113
287.918	2.486
288.135	2.61016
288.352	1.10639
288.569	1.27573
288.786	2.35085
289.003	1.99452
289.22	2.90752
289.437	1.63827
289.654	2.85458
289.871	3.00003
290.088	2.89723
290.305	2.20544
290.522	1.60118
290.739	2.00312
290.956	3.05804
291.173	3.41571
291.39	3.32878
291.607	2.37776
291.824	1.62255
292.04	1.12485
292.257	2.97704
292.474	3.17762
292.691	1.86455
292.908	0.87376
293.125	1.60798
293.341	0.95183
293.558	5.00373
293.775	1.95803
293.992	1.8331
294.208	0.88071
294.425	1.24097
294.642	1.7954
294.858	2.90666
295.075	0.55838
295.292	2.02654
295.508	2.23802
295.725	3.94241
295.942	1.5473
296.158	1.21242
296.375	1.93707
296.591	1.59749
296.808	1.63134
297.024	1.91809
297.241	2.22771
297.458	2.39339
297.674	0.12966
297.891	1.83816
298.107	1.43876
298.323	1.10052
298.54	2.9401
298.756	1.2587
298.973	0.56554
299.189	2.98775
299.406	1.19089
299.622	2.75106
299.838	2.60281
300.055	2.63349
300.271	0.45853
300.487	0.94338
300.704	1.20854
300.92	0.57331
301.136	4.15189
301.353	2.51231
301.569	1.72975
301.785	2.09452
302.001	2.49125
302.218	2.0797
302.434	2.18451
302.65	0.68105
302.866	1.55518
303.083	3.87293
303.299	3.66819
303.515	1.90119
303.731	1.89846
303.947	0.57671
304.163	1.0627
304.379	2.04922
304.595	2.32021
304.812	1.07734
305.028	1.20508
305.244	1.71345
305.46	2.5532
305.676	2.61582
305.892	3.01944
306.108	2.23163
306.324	1.41896
306.54	3.72237
306.756	2.53587
306.972	2.30792
307.187	1.6646
307.403	3.26758
307.619	1.54563
307.835	3.01299
308.051	3.48134
308.267	0.87645
308.483	2.75139
308.699	2.36353
308.914	1.97781
309.13	1.74523
309.346	0.49085
309.562	0.96405
309.778	0.58421
309.993	2.41709
310.209	1.79306
310.425	0.91707
310.641	1.58187
310.856	0.96293
311.072	0.87881
311.288	1.71743
311.503	1.86232
311.719	0.29361
311.935	0.23194
312.15	2.18047
312.366	1.76977
312.581	2.20056
312.797	1.65886
313.013	2.48854
313.228	1.21424
313.444	1.8147
313.659	1.17195
313.875	2.16716
314.09	1.62076
314.306	3.24406
314.521	2.48907
314.737	2.42156
314.952	1.74813
315.168	1.68384
315.383	2.31649
315.599	1.58424
315.814	1.43455
316.029	2.50567
316.245	0.72635
316.46	0.52022
316.675	3.01452
316.891	3.45991
317.106	4.41935
317.321	2.14173
317.537	2.47631
317.752	2.60826
317.967	2.79119
318.183	1.07827
318.398	1.51109
318.613	2.64288
318.828	3.21492
319.043	2.73766
319.259	1.62008
319.474	2.10244
319.689	3.06701
319.904	0.51415
320.119	2.50228
320.334	2.25227
320.549	1.59668
320.765	2.88545
320.98	1.95473
321.195	2.53201
321.41	1.80699
321.625	2.60578
321.84	3.47514
322.055	3.68715
322.27	1.36956
322.485	1.01421
322.7	2.25721
322.915	2.78789
323.13	1.12505
323.345	3.3126
323.56	2.4945
323.775	2.51802
323.989	2.26848
324.204	2.17308
324.419	2.98166
324.634	0.83283
324.849	1.6655
325.064	4.78349
325.279	2.69951
325.493	2.31702
325.708	2.82921
325.923	1.29018
326.138	1.28605
326.352	3.43196
326.567	2.75876
326.782	1.71131
326.997	1.26622
327.211	2.49858
327.426	2.22113
327.641	1.50594
327.855	0.58806
328.07	2.25482
328.285	3.46989
328.499	1.489
328.714	2.20399
328.928	2.59357
329.143	1.816
329.358	2.75217
329.572	2.75821
329.787	2.99356
330.001	4.12493
330.216	0.90488
330.43	3.45093
330.645	3.44621
330.859	2.81154
331.074	1.41332
331.288	1.97103
331.503	3.01445
331.717	0.98905
331.931	2.15251
332.146	2.04756
332.36	3.4842
332.575	2.35182
332.789	2.18435
333.003	1.98635
333.218	2.27958
333.432	1.26258
333.646	2.60247
333.86	3.3447
334.075	3.31128
334.289	1.45848
334.503	1.26275
334.717	2.23747
334.932	2.38671
335.146	3.06166
335.36	1.62265
335.574	2.52449
335.788	2.26917
336.003	2.91573
336.217	2.33338
336.431	2.48828
336.645	1.46621
336.859	0.86276
337.073	1.7196
337.287	2.03941
337.501	1.04235
337.715	2.14674
337.929	2.7794
338.143	0.99465
338.357	1.81465
338.571	1.20344
338.785	2.29429
338.999	1.60072
339.213	1.46153
339.427	0.6323
339.641	3.03762
339.855	1.77953
340.069	1.42332
340.283	2.86026
340.497	3.62749
340.711	2.18701
340.924	1.67358
341.138	1.03911
341.352	0.76713
341.566	2.15133
341.78	0.56166
341.993	1.47251
342.207	1.09525
342.421	1.9568
342.635	1.6382
342.848	1.48706
343.062	0.15239
343.276	1.25201
343.49	3.67275
343.703	1.39337
343.917	2.75657
344.131	2.54844
344.344	1.34619
344.558	1.56823
344.771	0.96831
344.985	3.31667
345.199	3.09657
345.412	2.04669
345.626	2.04681
345.839	0.52737
346.053	0.87713
346.266	0.95844
346.48	2.45936
346.693	2.14305
346.907	2.04786
347.12	1.09947
347.334	2.1511
347.547	2.06608
347.76	1.38771
347.974	2.80284
348.187	2.10075
348.401	1.41514
348.614	1.3438
348.827	1.36743
349.041	2.32207
349.254	0.43939
349.467	1.50109
349.681	0.77421
349.894	1.30675
350.107	2.78553
350.32	3.10223
350.534	0.59325
350.747	1.37671
350.96	1.07168
351.173	1.21864
351.386	1.50262
351.6	1.32776
351.813	1.1645
352.026	1.6616
352.239	0.6101
352.452	1.48691
352.665	2.44796
352.878	1.65973
353.092	3.29732
353.305	2.34444
353.518	1.76623
353.731	1.12989
353.944	2.72091
354.157	1.21719
354.37	0.86084
354.583	1.0282
354.796	0.35249
355.009	2.42758
355.222	1.8752
355.435	1.72862
355.647	2.37347
355.86	0.84452
356.073	1.61962
356.286	1.18254
356.499	2.19986
356.712	1.7031
356.925	2.02829
357.138	2.20209
357.35	0.87395
357.563	1.32822
357.776	1.6226
357.989	1.25836
358.201	1.90596
358.414	1.6526
358.627	2.49486
358.84	1.32718
359.052	0.67693
359.265	0.91132
359.478	2.27891
359.69	-0.27878
359.903	1.9999
360.116	2.14965
360.328	0.32663
360.541	2.09758
360.753	0.64851
360.966	1.00253
361.179	1.1453
361.391	1.04755
361.604	0.71126
361.816	1.09454
362.029	0.84238
362.241	0.76714
362.454	0.88388
362.666	0.67601
362.879	1.39228
363.091	1.17023
363.304	0.73701
363.516	1.29439
363.728	0.63542
363.941	1.75105
364.153	0.99997
364.366	-0.10249
364.578	0.71246
364.79	1.59282
365.003	1.18661
365.215	0.95194
365.427	1.66075
365.639	2.0684
365.852	1.48118
366.064	3.08724
366.276	0.946
366.488	1.72512
366.701	1.08137
366.913	1.25739
367.125	1.19147
367.337	0.8359
367.549	0.9781
367.762	1.48039
367.974	1.41235
368.186	0.79984
368.398	2.0098
368.61	1.83136
368.822	1.85539
369.034	1.39458
369.246	1.77837
369.458	3.44203
369.67	0.76416
369.882	2.68335
370.094	0.1237
370.306	2.58418
370.518	1.20116
370.73	0.8397
370.942	0.77305
371.154	1.25199
371.366	0.90449
371.578	1.3922
371.79	0.72316
372.002	2.15934
372.214	2.58884
372.425	1.38277
372.637	2.21665
372.849	1.53568
373.061	0.02275
373.273	1.60545
373.484	1.56038
373.696	2.00059
373.908	-0.00817
374.12	2.22856
374.331	1.59568
374.543	0.80209
374.755	0.68019
374.967	1.40106
375.178	1.75205
375.39	1.07681
375.602	1.35694
375.813	0.40871
376.025	0.55851
376.236	1.3776
376.448	1.46054
376.66	0.85926
376.871	0.86787
377.083	2.23456
377.294	2.18742
377.506	0.93134
377.717	2.21252
377.929	1.45012
378.14	0.8061
378.352	1.53717
378.563	1.41835
378.775	2.12504
378.986	0.71748
379.197	1.20723
379.409	0.91983
379.62	1.87474
379.832	1.61993
380.043	1.13795
380.254	1.34448
380.466	0.63924
380.677	3.32695
380.888	2.74897
381.1	3.01607
381.311	2.87982
381.522	1.20871
381.733	3.25856
381.945	1.20988
382.156	1.43708
382.367	0.96144
382.578	3.32399
382.789	3.13312
383.001	1.01246
383.212	2.25674
383.423	2.43859
383.634	2.21176
383.845	1.74506
384.056	1.03846
384.267	1.41316
384.478	1.27009
384.69	0.65126
384.901	1.64376
385.112	1.58717
385.323	2.36275
385.534	1.6534
385.745	1.49847
385.956	1.62331
386.167	0.70833
386.378	1.66303
386.588	0.63535
386.799	0.93315
387.01	0.29434
387.221	2.00156
387.432	1.22074
387.643	2.63035
387.854	1.27234
388.065	1.23585
388.275	1.3476
388.486	1.11295
388.697	1.2576
388.908	1.18218
389.119	2.22412
389.329	2.48694
389.54	1.47735
389.751	1.6094
389.962	2.25043
390.172	1.72426
390.383	1.16325
390.594	1.09104
390.804	1.09182
391.015	1.10645
391.226	1.51821
391.436	1.76328
391.647	1.64108
391.858	1.87211
392.068	0.34165
392.279	0.67399
392.489	1.48653
392.7	2.24898
392.91	0.88848
393.121	1.04404
393.331	1.77867
393.542	2.24046
393.752	1.68569
393.963	1.78645
394.173	1.58387
394.384	1.86549
394.594	1.57603
394.804	0.83892
395.015	1.67557
395.225	1.85943
395.436	0.98313
395.646	1.90757
395.856	1.13829
396.067	0.74269
396.277	2.26354
396.487	1.92842
396.697	1.81514
396.908	1.96758
397.118	2.13718
397.328	1.88931
397.538	2.29416
397.749	1.28337
397.959	2.19844
398.169	2.20249
398.379	1.01966
398.589	2.2373
398.8	1.79501
399.01	1.71027
399.22	1.59956
399.43	3.27528
399.64	1.65014
399.85	2.28382
400.06	1.85753
400.27	1.36364
400.48	1.8683
400.69	2.90736
400.9	1.51207
401.11	1.32912
401.32	2.46263
401.53	1.61741
401.74	3.01009
401.95	2.40415
402.16	1.28206
402.37	2.2063
402.58	1.59133
402.79	2.43194
403	2.67379
403.209	1.66775
403.419	2.62418
403.629	1.6228
403.839	2.55618
404.049	2.56908
404.258	1.69556
404.468	1.54975
404.678	2.27755
404.888	2.62308
405.097	1.65771
405.307	2.06761
405.517	2.46139
405.727	2.27238
405.936	1.98651
406.146	2.30234
406.356	2.98217
406.565	2.17219
406.775	1.86934
406.984	1.89747
407.194	3.29929
407.404	2.22424
407.613	2.5382
407.823	2.75125
408.032	2.8161
408.242	2.94074
408.451	2.11139
408.661	2.34221
408.87	3.44877
409.08	1.94647
409.289	2.5584
409.499	2.57938
409.708	2.50258
409.918	1.29986
410.127	2.50214
410.336	3.47133
410.546	2.83842
410.755	2.21019
410.964	2.34538
411.174	1.99332
411.383	2.77588
411.592	2.82487
411.802	1.95368
412.011	3.06708
412.22	2.42771
412.429	3.64886
412.639	3.41349
412.848	3.26203
413.057	3.34747
413.266	3.47122
413.475	2.71254
413.685	3.09136
413.894	3.29819
414.103	3.50682
414.312	3.25186
414.521	2.70271
414.73	2.83122
414.939	4.18877
415.148	3.11421
415.357	3.02505
415.566	2.60932
415.776	2.62014
415.985	2.59516
416.194	3.4274
416.403	3.97491
416.611	2.20237
416.82	2.6415
417.029	3.00956
417.238	2.64017
417.447	2.46223
417.656	2.81231
417.865	2.56407
418.074	2.7921
418.283	2.93053
418.492	3.48523
418.7	3.32293
418.909	4.08804
419.118	3.32769
419.327	3.51677
419.536	3.39832
419.744	3.18259
419.953	4.17322
420.162	4.27607
420.371	3.46833
420.579	3.61666
420.788	4.48567
420.997	4.49855
421.205	4.64448
421.414	4.40223
421.623	4.45542
421.831	4.16921
422.04	4.60735
422.249	3.93373
422.457	4.42467
422.666	3.79942
422.874	4.61443
423.083	4.70667
423.291	4.71286
423.5	4.47934
423.708	4.68072
423.917	5.04399
424.125	4.62085
424.334	4.44753
424.542	5.91032
424.751	5.36995
424.959	5.11623
425.167	5.30235
425.376	5.22068
425.584	4.4237
425.793	4.55101
426.001	3.8322
426.209	4.34939
426.418	3.50316
426.626	3.46547
426.834	3.33547
