Data from WindowProjectSample_Transmission__1__00001.txt Node

Date: Sat May 03 14:50:51 EDT 2025
User: jessi
Spectrometer: SR400872
Trigger mode: 0
Integration Time (sec): 5.000000E-1
Scans to average: 6
Electric dark correction enabled: true
Nonlinearity correction enabled: true
Boxcar width: 0
XAxis mode: Wavelengths
Number of Pixels in Spectrum: 3648
>>>>>Begin Spectral Data<<<<<
184.909	-14536.4223
185.132	2464.10776
185.355	-1964.31724
185.578	13105.02499
185.801	-120.75817
186.024	11301.89736
186.247	675.2365
186.47	-882.33542
186.693	78.04791
186.916	-1071.69886
187.139	5800.03559
187.362	1522.46514
187.585	13810.57073
187.808	2864.43931
188.031	49.77223
188.254	5531.49042
188.476	-22700.78034
188.699	1918.181
188.922	5301.29245
189.145	3507.37693
189.368	-660.37097
189.591	1933.82809
189.813	-6555.44559
190.036	2628.45511
190.259	1012.2285
190.482	-11159.35715
190.705	-3962.94017
190.927	1511.29291
191.15	-14145.42371
191.373	21829.91242
191.595	-2902.24217
191.818	2062.68669
192.041	-204.99898
192.263	1018.63287
192.486	-344.29611
192.709	-7652.43942
192.931	13264.93741
193.154	6227.68751
193.377	-12128.27869
193.599	-1717.86256
193.822	-1091.21344
194.044	2050.49869
194.267	1086.76707
194.489	-192.62389
194.712	1669.38787
194.934	98975.22128
195.157	1374.20048
195.379	953.82054
195.602	-4752.43628
195.824	1778.65735
196.047	-1159.42957
196.269	199819.82744
196.492	-2374.19066
196.714	4278.71313
196.936	3930.67338
197.159	3096.91993
197.381	7203.47448
197.604	367.74064
197.826	2440.02119
198.048	10273.00499
198.271	-19588.65536
198.493	2228.49487
198.715	2398.3583
198.938	-807.96792
199.16	2838.39679
199.382	1491.0315
199.604	-4165.48249
199.827	-5796.73471
200.049	-2340.89522
200.271	3994.77869
200.493	9822.55414
200.715	5968.65422
200.938	-10319.461
201.16	-13374.43054
201.382	946.04069
201.604	-1108.26052
201.826	2406.05379
202.048	2659.1683
202.27	5529.38755
202.492	-2966.53923
202.715	-1258.01993
202.937	-2721.56034
203.159	1532.23494
203.381	1917.28997
203.603	25194.06888
203.825	2952.03173
204.047	-12088.91502
204.269	5366.37145
204.491	-797.1127
204.713	2209.62971
204.935	-20539.01552
205.156	-2350.58285
205.378	6597.01713
205.6	-1869.86406
205.822	2715.2791
206.044	-1398.46145
206.266	1171.08599
206.488	1122.72904
206.71	2310.50699
206.932	-3653.36906
207.153	-1647.84453
207.375	-8927.19957
207.597	18191.33004
207.819	2046.79049
208.041	2517.61612
208.262	2270.78589
208.484	-1099.99579
208.706	-1052.77534
208.927	5483.78618
209.149	947.17923
209.371	-2782.03283
209.593	-885.89681
209.814	-2234.26795
210.036	-1167.76366
210.258	-4898.20521
210.479	-4092.56511
210.701	-4745.12571
210.922	6225.72133
211.144	-2468.14693
211.366	1294.32017
211.587	-32420.05358
211.809	-2376.4387
212.03	-1166.95134
212.252	859.63868
212.473	-4736.80794
212.695	1606.96104
212.916	-1703.41863
213.138	813.44703
213.359	-1092.10024
213.581	16803.33754
213.802	-413.42724
214.024	-2028.32596
214.245	-8513.16094
214.466	-175.5632
214.688	-2437.9215
214.909	-1778.11483
215.131	11244.96984
215.352	3155.6905
215.573	53788.60089
215.795	5117.01454
216.016	5959.11091
216.237	-736.92792
216.459	2450.35055
216.68	7454.17423
216.901	-4293.41071
217.122	5534.34287
217.344	1591.60261
217.565	-5028.1121
217.786	2205.92375
218.007	719.26192
218.228	996.6275
218.45	-2373.8116
218.671	2307.14469
218.892	2649.4233
219.113	1448.96323
219.334	-438.03372
219.555	6836.06715
219.776	4655.00256
219.997	1557.27139
220.219	814.60548
220.44	979.66682
220.661	1158.05455
220.882	5553.61022
221.103	3363.26407
221.324	1692.4454
221.545	72440.34869
221.766	-5511.26074
221.987	-768.71298
222.208	-2995.55113
222.429	5617.31898
222.65	-2410.45899
222.87	-2125.57341
223.091	3585.75471
223.312	-2163.76844
223.533	-4794.07349
223.754	2051.81924
223.975	1408.46933
224.196	-4087.58994
224.417	80891.53122
224.637	3817.70909
224.858	116.71054
225.079	3115.08985
225.3	2693.97125
225.521	4140.93721
225.741	2509.50631
225.962	895.14657
226.183	12334.20554
226.404	1322.52484
226.624	716.92558
226.845	853.74255
227.066	883.58033
227.286	517.78374
227.507	306.02627
227.728	214.88997
227.948	315.60366
228.169	105.07364
228.389	89.75243
228.61	51.35132
228.831	64.70372
229.051	9.50072
229.272	40.65036
229.492	59.03255
229.713	17.08658
229.933	40.75364
230.154	35.40994
230.374	60.97375
230.595	48.33571
230.815	34.28651
231.036	48.49654
231.256	-7.37084
231.477	93.57144
231.697	58.2988
231.917	58.2768
232.138	78.40167
232.358	182.02236
232.579	157.09968
232.799	30.22337
233.019	144.19672
233.24	173.86855
233.46	57.03873
233.68	99.14064
233.901	77.20171
234.121	45.42707
234.341	19.49665
234.561	-3.05498
234.782	33.36351
235.002	104.96675
235.222	-0.57423
235.442	84.32985
235.662	40.82611
235.883	87.51208
236.103	72.10921
236.323	69.97657
236.543	43.80444
236.763	58.93265
236.983	63.78927
237.203	77.08767
237.423	92.15634
237.643	142.14135
237.864	130.9512
238.084	34.43412
238.304	41.01637
238.524	81.20118
238.744	60.86293
238.964	100.3286
239.184	85.81224
239.404	92.55635
239.624	44.19183
239.843	88.85027
240.063	47.23148
240.283	28.64171
240.503	36.87923
240.723	31.77676
240.943	18.20826
241.163	24.14497
241.383	18.18136
241.603	9.1688
241.822	10.94186
242.042	8.38309
242.262	10.20747
242.482	11.83093
242.702	13.16534
242.921	5.34821
243.141	9.33147
243.361	8.63239
243.581	12.72791
243.8	11.09492
244.02	7.43502
244.24	13.32766
244.459	14.72557
244.679	26.93329
244.899	18.39694
245.118	19.86117
245.338	16.93135
245.558	18.59496
245.777	11.33929
245.997	12.54773
246.216	12.60858
246.436	6.92446
246.655	5.03861
246.875	4.55834
247.094	7.56209
247.314	2.70622
247.533	4.34348
247.753	6.10896
247.972	5.07995
248.192	1.80163
248.411	2.60902
248.631	5.61756
248.85	7.25131
249.07	4.93769
249.289	8.87864
249.508	6.96168
249.728	11.68518
249.947	12.00607
250.166	12.35778
250.386	7.45315
250.605	11.27217
250.824	15.66689
251.044	11.78505
251.263	35.96614
251.482	17.91126
251.701	17.62381
251.921	0.57618
252.14	5.8479
252.359	5.44365
252.578	13.98748
252.798	5.10339
253.017	12.6552
253.236	7.06647
253.455	8.46367
253.674	16.48127
253.893	8.16771
254.112	13.01257
254.331	17.64967
254.551	16.11826
254.77	6.97862
254.989	20.26793
255.208	19.92535
255.427	23.12977
255.646	19.98389
255.865	35.31643
256.084	13.21569
256.303	15.91845
256.522	21.53904
256.741	6.08553
256.96	6.40574
257.179	13.03779
257.397	15.35742
257.616	7.29762
257.835	8.53996
258.054	21.0697
258.273	13.88234
258.492	15.37179
258.711	9.8997
258.93	4.26113
259.148	5.24146
259.367	5.70444
259.586	7.43009
259.805	3.39195
260.023	6.76331
260.242	5.33398
260.461	3.58698
260.68	2.0159
260.898	6.50927
261.117	2.21444
261.336	1.60799
261.554	5.58453
261.773	5.58288
261.992	1.38781
262.21	5.60017
262.429	6.9609
262.648	11.35892
262.866	13.49105
263.085	7.72692
263.303	7.65296
263.522	13.32357
263.74	13.69741
263.959	21.91698
264.178	12.37417
264.396	10.69725
264.615	7.61551
264.833	17.75299
265.051	15.13975
265.27	14.34006
265.488	16.86429
265.707	10.3782
265.925	15.72184
266.144	7.53682
266.362	9.41181
266.58	9.73589
266.799	6.89148
267.017	8.55002
267.235	8.04529
267.454	5.16659
267.672	2.69755
267.89	7.05679
268.109	6.95739
268.327	6.55195
268.545	1.52509
268.763	6.84003
268.982	3.01801
269.2	8.12026
269.418	4.85879
269.636	3.51043
269.854	6.35217
270.073	4.92542
270.291	2.10709
270.509	3.30433
270.727	6.94202
270.945	11.24941
271.163	10.54255
271.381	2.69629
271.599	4.54775
271.817	7.55608
272.036	2.639
272.254	4.48398
272.472	3.47682
272.69	3.66857
272.908	3.75856
273.126	6.43263
273.344	8.00503
273.562	2.93842
273.779	3.97083
273.997	5.52559
274.215	6.78379
274.433	3.94404
274.651	6.69249
274.869	7.46558
275.087	3.67473
275.305	6.33692
275.523	3.6357
275.74	4.93249
275.958	8.58415
276.176	12.23553
276.394	3.46555
276.612	4.90812
276.829	4.53512
277.047	3.89571
277.265	4.02597
277.483	6.07904
277.7	6.42448
277.918	5.18715
278.136	9.3833
278.353	4.40363
278.571	2.48616
278.789	7.38042
279.006	1.4842
279.224	4.67692
279.442	7.70018
279.659	5.01393
279.877	3.82331
280.094	8.69111
280.312	1.45739
280.529	5.32843
280.747	1.48049
280.964	3.90204
281.182	9.20716
281.399	3.91867
281.617	5.98682
281.834	4.16231
282.052	3.27191
282.269	4.83608
282.487	3.81932
282.704	3.04134
282.921	3.62491
283.139	4.92071
283.356	6.45102
283.574	5.61869
283.791	3.05534
284.008	7.8974
284.226	4.48294
284.443	5.10349
284.66	5.94532
284.877	5.11702
285.095	3.24547
285.312	2.39594
285.529	1.78847
285.746	1.5579
285.964	3.01963
286.181	2.14854
286.398	2.84934
286.615	3.99533
286.832	3.88664
287.05	1.23309
287.267	2.73734
287.484	3.22232
287.701	4.1777
287.918	3.96625
288.135	4.30308
288.352	2.08964
288.569	2.46342
288.786	3.65214
289.003	2.62206
289.22	4.03487
289.437	2.91357
289.654	4.48223
289.871	4.61348
290.088	4.70389
290.305	3.30743
290.522	2.75344
290.739	3.31091
290.956	4.72616
291.173	5.6767
291.39	5.41349
291.607	3.738
291.824	2.80668
292.04	2.15625
292.257	4.49688
292.474	5.07612
292.691	3.5543
292.908	1.70028
293.125	3.02456
293.341	1.7572
293.558	7.82365
293.775	3.06195
293.992	3.62705
294.208	1.38801
294.425	2.07611
294.642	2.77961
294.858	4.17027
295.075	1.17144
295.292	3.17673
295.508	4.00763
295.725	5.76909
295.942	3.38679
296.158	3.0545
296.375	4.29581
296.591	3.34802
296.808	4.2924
297.024	5.16784
297.241	5.60169
297.458	6.33494
297.674	3.40969
297.891	5.91646
298.107	6.34512
298.323	5.21001
298.54	9.102
298.756	6.70475
298.973	6.13981
299.189	9.9443
299.406	7.96431
299.622	9.95323
299.838	10.52417
300.055	10.45383
300.271	8.43003
300.487	8.5299
300.704	9.80117
300.92	8.97262
301.136	14.84514
301.353	12.52322
301.569	11.3077
301.785	11.82388
302.001	13.23558
302.218	12.69092
302.434	13.51563
302.65	11.15729
302.866	12.38081
303.083	16.48751
303.299	16.57004
303.515	13.63173
303.731	15.14691
303.947	12.74481
304.163	14.05644
304.379	14.90502
304.595	15.58599
304.812	14.0216
305.028	14.01392
305.244	14.3961
305.46	15.84033
305.676	16.50161
305.892	17.75195
306.108	16.59928
306.324	15.43304
306.54	18.2759
306.756	16.54265
306.972	16.14166
307.187	16.48199
307.403	17.79562
307.619	15.31673
307.835	17.693
308.051	18.65137
308.267	15.28352
308.483	19.00715
308.699	17.84514
308.914	17.453
309.13	17.45168
309.346	15.93128
309.562	16.95177
309.778	16.43537
309.993	18.98773
310.209	19.00726
310.425	16.70657
310.641	18.7518
310.856	17.99081
311.072	17.71587
311.288	19.0459
311.503	20.29881
311.719	17.09423
311.935	17.40369
312.15	20.77234
312.366	20.63637
312.581	20.58897
312.797	20.34517
313.013	20.74065
313.228	19.48403
313.444	19.06231
313.659	18.71114
313.875	19.91357
314.09	19.4963
314.306	21.34808
314.521	21.04907
314.737	20.96157
314.952	19.8418
315.168	20.18482
315.383	21.14953
315.599	18.85912
315.814	20.15104
316.029	20.93959
316.245	19.08634
316.46	17.40528
316.675	21.60503
316.891	23.36539
317.106	23.94225
317.321	21.52146
317.537	21.50576
317.752	21.90534
317.967	21.71476
318.183	19.29172
318.398	20.01069
318.613	22.05705
318.828	22.87321
319.043	21.91856
319.259	21.1432
319.474	21.34417
319.689	22.88573
319.904	19.19464
320.119	23.04868
320.334	21.67224
320.549	21.32693
320.765	23.45981
320.98	23.00557
321.195	22.21397
321.41	21.74553
321.625	22.87005
321.84	24.38946
322.055	24.29771
322.27	21.45887
322.485	20.67088
322.7	22.75838
322.915	23.83657
323.13	22.31671
323.345	25.76073
323.56	24.98169
323.775	24.4594
323.989	24.3617
324.204	23.39585
324.419	25.28453
324.634	22.51115
324.849	24.32392
325.064	28.83545
325.279	26.07418
325.493	25.53888
325.708	26.10441
325.923	23.79984
326.138	24.53553
326.352	27.05247
326.567	26.30247
326.782	24.51219
326.997	25.17386
327.211	26.28044
327.426	25.74217
327.641	25.10623
327.855	23.82502
328.07	27.26105
328.285	28.93816
328.499	25.25953
328.714	26.75154
328.928	26.71098
329.143	25.8927
329.358	27.91533
329.572	27.47737
329.787	29.04034
330.001	29.60114
330.216	23.64498
330.43	30.45266
330.645	28.45875
330.859	28.46464
331.074	25.03717
331.288	27.11505
331.503	30.18766
331.717	25.01261
331.931	27.10208
332.146	28.24472
332.36	30.78327
332.575	28.10166
332.789	28.54059
333.003	28.3697
333.218	28.76708
333.432	28.15982
333.646	29.71962
333.86	31.35232
334.075	31.17368
334.289	27.99311
334.503	26.47903
334.717	30.51622
334.932	29.0195
335.146	30.77072
335.36	27.87947
335.574	31.10686
335.788	29.98171
336.003	31.7401
336.217	31.81533
336.431	31.45955
336.645	28.99669
336.859	28.81306
337.073	30.3933
337.287	31.31565
337.501	28.21125
337.715	31.9299
337.929	31.31645
338.143	29.57352
338.357	30.54579
338.571	30.74076
338.785	33.43611
338.999	30.84415
339.213	31.13532
339.427	30.88718
339.641	34.1327
339.855	32.19452
340.069	30.62801
340.283	34.03486
340.497	34.53946
340.711	34.15144
340.924	33.14188
341.138	31.90728
341.352	31.57074
341.566	33.91002
341.78	31.82462
341.993	32.69517
342.207	32.55331
342.421	34.58959
342.635	34.33442
342.848	33.39104
343.062	30.61263
343.276	33.59229
343.49	36.12441
343.703	33.36691
343.917	35.67296
344.131	36.36365
344.344	33.71549
344.558	34.13609
344.771	33.52125
344.985	36.84653
345.199	38.03202
345.412	36.11446
345.626	36.8647
345.839	34.17821
346.053	34.6965
346.266	34.96181
346.48	36.82121
346.693	36.63526
346.907	37.06298
347.12	35.10623
347.334	36.29972
347.547	37.47338
347.76	36.26106
347.974	38.38078
348.187	36.76189
348.401	36.62633
348.614	35.63543
348.827	36.88186
349.041	37.39986
349.254	34.97443
349.467	36.59414
349.681	36.19342
349.894	36.14203
350.107	39.19497
350.32	40.76872
350.534	35.28464
350.747	37.75238
350.96	36.99113
351.173	37.39529
351.386	38.07841
351.6	37.15869
351.813	38.04035
352.026	38.20979
352.239	37.36554
352.452	37.70211
352.665	40.08051
352.878	38.44973
353.092	42.12939
353.305	39.8904
353.518	39.94585
353.731	37.86941
353.944	40.78792
354.157	38.55734
354.37	39.06452
354.583	38.3251
354.796	38.7375
355.009	41.51501
355.222	39.95355
355.435	40.53147
355.647	41.81888
355.86	39.73854
356.073	41.28158
356.286	39.71457
356.499	42.32692
356.712	42.49913
356.925	41.64389
357.138	42.24803
357.35	40.22878
357.563	40.86047
357.776	42.1881
357.989	42.3562
358.201	43.07434
358.414	42.28231
358.627	44.23579
358.84	41.91455
359.052	40.69252
359.265	42.00699
359.478	43.8298
359.69	39.72717
359.903	43.74974
360.116	43.91619
360.328	40.94828
360.541	43.92983
360.753	42.62762
360.966	42.745
361.179	43.49481
361.391	43.23954
361.604	42.91924
361.816	43.77719
362.029	43.49626
362.241	43.92889
362.454	44.27563
362.666	43.44438
362.879	45.1408
363.091	44.13388
363.304	44.2752
363.516	44.2624
363.728	43.39084
363.941	45.4507
364.153	45.14672
364.366	42.19931
364.578	43.83085
364.79	45.97121
365.003	45.56767
365.215	44.33336
365.427	45.95736
365.639	46.2538
365.852	45.3908
366.064	47.78779
366.276	45.13332
366.488	45.74089
366.701	45.46957
366.913	45.43201
367.125	45.79779
367.337	45.20292
367.549	45.43273
367.762	45.96399
367.974	45.44326
368.186	46.25367
368.398	47.32809
368.61	46.8777
368.822	47.31249
369.034	45.68154
369.246	47.92724
369.458	50.46175
369.67	45.34214
369.882	48.0928
370.094	44.14551
370.306	48.31404
370.518	46.45015
370.73	45.50723
370.942	46.60572
371.154	47.46247
371.366	47.66246
371.578	48.76113
371.79	48.13715
372.002	49.16923
372.214	50.63239
372.425	48.21293
372.637	50.28606
372.849	48.81819
373.061	45.71825
373.273	48.66472
373.484	48.70916
373.696	49.75398
373.908	45.98172
374.12	49.02404
374.331	49.68225
374.543	47.66316
374.755	47.09229
374.967	48.75159
375.178	50.21894
375.39	48.118
375.602	48.9285
375.813	47.03101
376.025	48.29257
376.236	49.4968
376.448	49.68524
376.66	49.19505
376.871	49.97102
377.083	50.72497
377.294	51.78421
377.506	49.38878
377.717	51.92504
377.929	50.72488
378.14	49.94898
378.352	51.10805
378.563	51.35018
378.775	52.24401
378.986	49.85358
379.197	51.06718
379.409	50.31455
379.62	51.47838
379.832	51.01673
380.043	50.61093
380.254	51.52547
380.466	49.74224
380.677	55.1361
380.888	53.77215
381.1	55.15933
381.311	55.1774
381.522	51.77876
381.733	54.89182
381.945	51.67925
382.156	51.25371
382.367	51.86667
382.578	55.77311
382.789	55.63185
383.001	51.31959
383.212	55.06586
383.423	54.54067
383.634	53.84192
383.845	53.15556
384.056	52.02952
384.267	52.53206
384.478	52.85886
384.69	51.17571
384.901	53.40888
385.112	53.48592
385.323	55.95079
385.534	54.31682
385.745	54.09662
385.956	53.74696
386.167	52.52105
386.378	54.85129
386.588	53.38032
386.799	52.74047
387.01	52.21073
387.221	55.30431
387.432	54.01612
387.643	56.12533
387.854	54.04173
388.065	53.57468
388.275	54.37043
388.486	54.26929
388.697	55.32438
388.908	54.38645
389.119	55.97423
389.329	56.2102
389.54	54.79706
389.751	54.79999
389.962	56.04191
390.172	54.1682
390.383	54.57819
390.594	54.53864
390.804	53.96863
391.015	54.22924
391.226	55.29501
391.436	56.30372
391.647	56.21987
391.858	56.82955
392.068	53.98685
392.279	54.84122
392.489	56.58629
392.7	57.7799
392.91	54.86322
393.121	55.62069
393.331	56.99119
393.542	57.63154
393.752	57.24749
393.963	57.07727
394.173	56.98911
394.384	57.366
394.594	56.83647
394.804	55.51383
395.015	57.52115
395.225	57.87659
395.436	56.14872
395.646	57.47029
395.856	56.81801
396.067	55.77713
396.277	58.03856
396.487	58.01976
396.697	58.03954
396.908	58.28851
397.118	57.99439
397.328	57.58424
397.538	58.62788
397.749	57.03071
397.959	58.23397
398.169	57.57473
398.379	56.23513
398.589	57.92402
398.8	58.45414
399.01	58.08658
399.22	57.69005
399.43	60.30742
399.64	58.17087
399.85	58.80002
400.06	58.36152
400.27	57.63216
400.48	58.51638
400.69	59.39885
400.9	57.79918
401.11	57.04281
401.32	59.03395
401.53	58.18089
401.74	59.81555
401.95	58.42851
402.16	57.67188
402.37	58.45656
402.58	57.75512
402.79	59.15052
403	59.24581
403.209	57.33095
403.419	59.51244
403.629	57.82816
403.839	60.08489
404.049	60.41643
404.258	58.46493
404.468	58.55294
404.678	60.19438
404.888	60.45819
405.097	59.2223
405.307	59.38797
405.517	60.51375
405.727	59.89139
405.936	59.32064
406.146	60.20377
406.356	60.81816
406.565	60.19959
406.775	59.30832
406.984	60.10991
407.194	61.96347
407.404	60.31207
407.613	60.3313
407.823	61.09262
408.032	61.4942
408.242	61.05399
408.451	59.61952
408.661	60.39255
408.87	61.75331
409.08	59.22847
409.289	60.64878
409.499	60.13513
409.708	60.04975
409.918	58.03351
410.127	60.34311
410.336	61.94141
410.546	61.57198
410.755	60.42358
410.964	59.98559
411.174	59.82023
411.383	61.75865
411.592	61.51425
411.802	60.50675
412.011	62.50839
412.22	60.64005
412.429	62.68228
412.639	62.54637
412.848	62.50312
413.057	62.83848
413.266	62.13824
413.475	60.95136
413.685	62.66976
413.894	62.76491
414.103	62.84694
414.312	62.04905
414.521	60.58247
414.73	61.31333
414.939	63.73441
415.148	61.99937
415.357	61.70776
415.566	61.47452
415.776	61.24999
415.985	61.03694
416.194	62.37037
416.403	63.59674
416.611	60.21225
416.82	60.97724
417.029	62.38174
417.238	61.35326
417.447	61.56568
417.656	61.65466
417.865	61.34781
418.074	61.83458
418.283	62.05609
418.492	63.41043
418.7	63.25226
418.909	64.02067
419.118	62.53999
419.327	63.20178
419.536	62.88611
419.744	62.06769
