Data from WindowProjectSample_Transmission__22__00022.txt Node

Date: Sat May 03 15:16:40 EDT 2025
User: jessi
Spectrometer: SR400872
Trigger mode: 0
Integration Time (sec): 5.000010E-1
Scans to average: 6
Electric dark correction enabled: true
Nonlinearity correction enabled: true
Boxcar width: 0
XAxis mode: Wavelengths
Number of Pixels in Spectrum: 3648
>>>>>Begin Spectral Data<<<<<
184.909	18465.55347
185.132	2535.08902
185.355	24455.90998
185.578	-8262.64234
185.801	453.17719
186.024	-1549.42006
186.247	730.63018
186.47	2304.60435
186.693	-254.79776
186.916	-1968.65326
187.139	-2579.48131
187.362	1555.77362
187.585	2769.72332
187.808	-3564.98232
188.031	266.94723
188.254	-1336.15739
188.476	-828.82116
188.699	2501.75356
188.922	-697.20499
189.145	-10549.91733
189.368	-303.94335
189.591	-1067.09015
189.813	-1719.80916
190.036	1175.86709
190.259	1777.7826
190.482	653.84126
190.705	11050.8583
190.927	-1145.80133
191.15	3536.86741
191.373	2283.01147
191.595	-2207.8081
191.818	2466.96218
192.041	-376.87264
192.263	2668.45034
192.486	1813.63187
192.709	-5577.88958
192.931	2743.06885
193.154	-6391.90597
193.377	194567.21228
193.599	1292.72052
193.822	2016.69777
194.044	-2081.76894
194.267	448.49821
194.489	-478.28335
194.712	1393.48699
194.934	3361.01516
195.157	-16350.72707
195.379	738.20751
195.602	2342.33235
195.824	2158.48191
196.047	2184.77495
196.269	3029.91755
196.492	3352.17757
196.714	2692.00279
196.936	1205.31135
197.159	1472.93062
197.381	-2379.15708
197.604	-1280.89031
197.826	6370.25967
198.048	2928.61019
198.271	4274.04061
198.493	2171.84054
198.715	-6037.75699
198.938	-552.00145
199.16	2011.19345
199.382	1464.02754
199.604	-660.40591
199.827	9312.57687
200.049	999.74917
200.271	-2939.55597
200.493	-53684.35369
200.715	2369.2452
200.938	6802.40586
201.16	-7349.95008
201.382	-3069.60216
201.604	-1951.04744
201.826	6935.54292
202.048	928.16387
202.27	-17603.67894
202.492	4845.80607
202.715	-1150.90605
202.937	4450.9078
203.159	-2173.98909
203.381	875.53939
203.603	-3808.9239
203.825	-2861.09176
204.047	3436.11782
204.269	-2232.10655
204.491	2199.16181
204.713	1916.00505
204.935	16328.34713
205.156	1810.39553
205.378	-8264.81559
205.6	-4151.07379
205.822	9133.29949
206.044	-633.88491
206.266	4239.38931
206.488	1156.589
206.71	29523.44891
206.932	2530.96148
207.153	-5018.16179
207.375	-1959.3554
207.597	8748.35833
207.819	4440.46499
208.041	2210.26497
208.262	-2383.65018
208.484	-1348.59686
208.706	-2974.27174
208.927	30860.3847
209.149	943.12774
209.371	-6418.31647
209.593	913.23914
209.814	5553.46458
210.036	-3509.62362
210.258	-5816.39248
210.479	-1384.63105
210.701	1030.8028
210.922	7208.46644
211.144	-1276.61425
211.366	-6408.17148
211.587	-660.2249
211.809	9788.35897
212.03	-1168.03692
212.252	-2409.22952
212.473	779.77678
212.695	-2763.95302
212.916	2703.89487
213.138	4419.45677
213.359	-1960.93729
213.581	5971.42052
213.802	-1488.51475
214.024	17645.47181
214.245	-3666.36077
214.466	-755.43754
214.688	1689.79966
214.909	934.08546
215.131	-92743.46691
215.352	1755.06224
215.573	2403.8565
215.795	2877.69229
216.016	4376.51117
216.237	-685.88266
216.459	6945.61203
216.68	101140.87212
216.901	-80555.71287
217.122	1953.98241
217.344	6409.7853
217.565	-57973.81846
217.786	1561.19143
218.007	1626.43121
218.228	-1001.74532
218.45	-1179.63116
218.671	-1218.71678
218.892	1131.90399
219.113	-20200.09851
219.334	-325.61661
219.555	-5723.28107
219.776	1591.35351
219.997	3438.71571
220.219	1098.30232
220.44	2368.72745
220.661	-2831.99706
220.882	3608.21718
221.103	-1188.27395
221.324	1029.71923
221.545	2257.0646
221.766	-5960.96433
221.987	4047.5439
222.208	-1732.53722
222.429	3472.58474
222.65	-139.60039
222.87	-607.69788
223.091	7693.10838
223.312	2675.10784
223.533	6348.73096
223.754	1896.95422
223.975	1437.14564
224.196	-11538.27899
224.417	1148.283
224.637	827.12435
224.858	-445.50093
225.079	6785.4166
225.3	629.29939
225.521	2061.3917
225.741	1561.26196
225.962	757.9018
226.183	302.09102
226.404	665.34841
226.624	605.53217
226.845	396.29732
227.066	440.41793
227.286	195.28376
227.507	109.11311
227.728	80.31011
227.948	123.56387
228.169	42.38504
228.389	45.80526
228.61	25.86411
228.831	36.52031
229.051	3.47286
229.272	22.73413
229.492	30.66945
229.713	9.64492
229.933	22.53302
230.154	19.10863
230.374	33.19572
230.595	24.27678
230.815	16.90931
231.036	21.73538
231.256	-4.91332
231.477	42.7232
231.697	25.27224
231.917	23.9436
232.138	37.74835
232.358	75.30285
232.579	64.4003
232.799	12.54351
233.019	67.05286
233.24	79.14524
233.46	24.59395
233.68	41.08442
233.901	31.75153
234.121	20.74689
234.341	10.81453
234.561	-2.68203
234.782	16.02515
235.002	48.34093
235.222	-1.06035
235.442	40.86465
235.662	18.80191
235.883	43.80593
236.103	35.67257
236.323	24.08129
236.543	20.62701
236.763	32.67333
236.983	28.26936
237.203	29.7008
237.423	45.35873
237.643	64.34432
237.864	51.90773
238.084	15.0916
238.304	19.67774
238.524	34.92377
238.744	30.2501
238.964	47.57034
239.184	44.58632
239.404	45.43344
239.624	25.03678
239.843	40.14176
240.063	24.88065
240.283	16.18952
240.503	16.94936
240.723	18.07762
240.943	8.54984
241.163	13.8093
241.383	10.09874
241.603	4.66399
241.822	6.99824
242.042	4.8186
242.262	6.62249
242.482	7.00687
242.702	8.37924
242.921	2.52429
243.141	5.92318
243.361	4.77097
243.581	7.33752
243.8	6.59425
244.02	4.08089
244.24	7.58088
244.459	7.64191
244.679	14.25676
244.899	10.25212
245.118	11.1661
245.338	8.67356
245.558	10.83942
245.777	6.41121
245.997	7.24892
246.216	7.6368
246.436	4.24017
246.655	2.97006
246.875	2.79777
247.094	4.93353
247.314	1.77905
247.533	2.73388
247.753	3.69812
247.972	2.68807
248.192	1.22722
248.411	1.60057
248.631	3.14572
248.85	4.20937
249.07	3.09924
249.289	5.33765
249.508	3.91972
249.728	5.5385
249.947	6.6343
250.166	6.92772
250.386	3.85898
250.605	5.8933
250.824	8.5733
251.044	6.54672
251.263	20.59901
251.482	10.93404
251.701	10.16412
251.921	0.71091
252.14	3.15544
252.359	3.44471
252.578	8.21265
252.798	2.73774
253.017	7.87784
253.236	3.94865
253.455	4.4277
253.674	9.34643
253.893	4.92288
254.112	6.62619
254.331	10.05595
254.551	7.41061
254.77	3.78937
254.989	11.96692
255.208	10.6181
255.427	13.01857
255.646	10.84356
255.865	17.92437
256.084	6.93754
256.303	8.41886
256.522	10.88424
256.741	3.73725
256.96	3.38562
257.179	6.94437
257.397	8.90447
257.616	4.98835
257.835	5.35814
258.054	12.08573
258.273	7.90144
258.492	8.48822
258.711	5.39961
258.93	2.39882
259.148	3.57083
259.367	3.51255
259.586	4.60225
259.805	2.06743
260.023	4.09038
260.242	3.37152
260.461	2.2392
260.68	1.41885
260.898	3.90717
261.117	1.28077
261.336	0.96885
261.554	3.30938
261.773	3.24687
261.992	0.48436
262.21	3.05772
262.429	4.25204
262.648	6.46294
262.866	6.78252
263.085	4.57327
263.303	4.56828
263.522	7.59898
263.74	7.88372
263.959	12.53095
264.178	6.59192
264.396	5.89553
264.615	4.14571
264.833	9.77975
265.051	8.69928
265.27	8.54121
265.488	9.32176
265.707	5.95846
265.925	9.24108
266.144	4.4758
266.362	5.36553
266.58	5.21724
266.799	4.43238
267.017	5.12743
267.235	4.61485
267.454	3.01318
267.672	1.72083
267.89	3.5805
268.109	4.04608
268.327	4.05016
268.545	0.91859
268.763	3.69517
268.982	1.20917
269.2	4.61507
269.418	2.73761
269.636	1.92147
269.854	3.38629
270.073	3.01926
270.291	1.45078
270.509	1.91669
270.727	3.85602
270.945	6.20831
271.163	6.35413
271.381	1.7718
271.599	2.50063
271.817	4.4472
272.036	1.70542
272.254	2.66369
272.472	2.07895
272.69	1.99692
272.908	2.16021
273.126	3.61813
273.344	4.81323
273.562	1.93423
273.779	2.57422
273.997	3.32118
274.215	3.99852
274.433	2.67164
274.651	4.09013
274.869	4.15587
275.087	2.67613
275.305	4.06837
275.523	2.13433
275.74	2.96265
275.958	4.87966
276.176	7.18094
276.394	2.11359
276.612	2.9432
276.829	2.98832
277.047	2.40563
277.265	2.58137
277.483	3.51744
277.7	3.9227
277.918	3.04878
278.136	5.27544
278.353	2.81381
278.571	1.45604
278.789	4.62571
279.006	0.82793
279.224	2.64446
279.442	4.83312
279.659	3.06166
279.877	2.11179
280.094	5.00152
280.312	1.3857
280.529	3.35569
280.747	0.73165
280.964	2.42763
281.182	5.37786
281.399	2.31477
281.617	3.39291
281.834	2.37209
282.052	1.90873
282.269	2.8513
282.487	2.28568
282.704	1.85126
282.921	1.99935
283.139	3.03141
283.356	4.04866
283.574	3.03922
283.791	1.59151
284.008	4.69139
284.226	2.64118
284.443	2.87579
284.66	3.46714
284.877	3.08969
285.095	1.8802
285.312	1.48885
285.529	0.97274
285.746	0.80763
285.964	1.97302
286.181	1.21408
286.398	1.92405
286.615	2.49566
286.832	2.44908
287.05	0.82952
287.267	1.69416
287.484	1.82687
287.701	2.40818
287.918	2.39897
288.135	2.59561
288.352	0.97364
288.569	1.43341
288.786	2.2811
289.003	1.75417
289.22	2.59764
289.437	1.63583
289.654	2.67623
289.871	2.84763
290.088	2.72213
290.305	2.2019
290.522	1.65761
290.739	1.97147
290.956	2.86615
291.173	3.44261
291.39	3.21651
291.607	2.29718
291.824	1.71307
292.04	1.15344
292.257	2.52217
292.474	2.9957
292.691	2.00029
292.908	0.9293
293.125	1.60101
293.341	1.12887
293.558	4.85829
293.775	1.88743
293.992	2.19922
294.208	0.79677
294.425	1.09748
294.642	1.71244
294.858	2.44436
295.075	0.67088
295.292	1.80447
295.508	2.40899
295.725	3.45102
295.942	1.72655
296.158	1.03635
296.375	1.86166
296.591	1.47081
296.808	1.67019
297.024	1.85314
297.241	2.0582
297.458	2.24585
297.674	0.15146
297.891	1.69255
298.107	1.22381
298.323	1.05083
298.54	2.56146
298.756	1.14701
298.973	0.50655
299.189	2.72133
299.406	1.11285
299.622	2.7661
299.838	2.60155
300.055	2.51362
300.271	0.78896
300.487	0.83968
300.704	1.14292
300.92	0.72206
301.136	3.62067
301.353	2.64208
301.569	1.77072
301.785	2.11778
302.001	2.48475
302.218	2.24121
302.434	2.07816
302.65	0.76736
302.866	1.67706
303.083	3.60544
303.299	3.48709
303.515	1.81284
303.731	2.0411
303.947	0.76644
304.163	1.15046
304.379	1.96175
304.595	2.32164
304.812	1.33748
305.028	1.13414
305.244	1.55147
305.46	2.5515
305.676	2.59895
305.892	2.91981
306.108	1.93516
306.324	1.39775
306.54	3.41542
306.756	2.47057
306.972	2.37146
307.187	1.64217
307.403	3.23129
307.619	1.31442
307.835	2.73447
308.051	3.16738
308.267	0.64768
308.483	2.70915
308.699	2.2472
308.914	1.9757
309.13	1.74748
309.346	0.42834
309.562	0.92566
309.778	0.63937
309.993	2.26998
310.209	1.71335
310.425	0.78495
310.641	1.57603
310.856	0.93411
311.072	0.77351
311.288	1.76821
311.503	1.86655
311.719	0.37741
311.935	0.32879
312.15	2.08198
312.366	1.72071
312.581	2.25478
312.797	1.79733
313.013	2.33829
313.228	1.50412
313.444	1.89039
313.659	1.32592
313.875	2.14414
314.09	1.76897
314.306	2.75109
314.521	2.49381
314.737	2.26082
314.952	2.16943
315.168	1.53704
315.383	2.4983
315.599	1.78799
315.814	1.43137
316.029	2.41012
316.245	0.70401
316.46	0.61188
316.675	2.89401
316.891	3.67933
317.106	4.44645
317.321	2.43152
317.537	2.42787
317.752	2.49529
317.967	2.7223
318.183	1.25184
318.398	1.64645
318.613	2.80281
318.828	3.23023
319.043	2.72858
319.259	1.39659
319.474	2.05266
319.689	2.78733
319.904	0.34184
320.119	2.69285
320.334	2.31833
320.549	1.75891
320.765	2.85359
320.98	2.39784
321.195	2.8218
321.41	1.73118
321.625	2.71721
321.84	3.6397
322.055	3.63072
322.27	1.32061
322.485	1.05396
322.7	2.04805
322.915	3.10794
323.13	1.09171
323.345	3.24957
323.56	2.6053
323.775	2.48728
323.989	2.47834
324.204	2.02999
324.419	2.63967
324.634	0.93773
324.849	1.83016
325.064	4.02287
325.279	3.02026
325.493	2.49003
325.708	2.97582
325.923	1.30098
326.138	1.29544
326.352	3.33589
326.567	2.85359
326.782	1.69875
326.997	1.33141
327.211	2.37984
327.426	2.24382
327.641	1.51218
327.855	0.59273
328.07	2.56377
328.285	3.44775
328.499	1.72439
328.714	2.56558
328.928	2.74503
329.143	2.23604
329.358	2.76733
329.572	2.96732
329.787	3.25387
330.001	4.14212
330.216	0.69861
330.43	3.67324
330.645	3.55178
330.859	2.77496
331.074	1.33165
331.288	2.23532
331.503	3.03749
331.717	1.18138
331.931	1.95053
332.146	1.90296
332.36	3.51354
332.575	2.54137
332.789	2.28966
333.003	1.83704
333.218	2.49153
333.432	1.77938
333.646	2.60184
333.86	3.3028
334.075	3.53827
334.289	1.75505
334.503	1.28946
334.717	2.59064
334.932	2.48085
335.146	3.12641
335.36	1.66057
335.574	2.65976
335.788	2.55733
336.003	3.19841
336.217	2.53841
336.431	2.60686
336.645	1.61557
336.859	0.84394
337.073	1.76356
337.287	2.25274
337.501	1.12943
337.715	2.22214
337.929	2.70687
338.143	1.15759
338.357	2.06422
338.571	1.13378
338.785	2.43423
338.999	1.60291
339.213	1.78593
339.427	0.76118
339.641	3.01043
339.855	1.97763
340.069	1.45882
340.283	2.9902
340.497	3.60565
340.711	2.4711
340.924	1.55371
341.138	1.07035
341.352	0.86663
341.566	2.14769
341.78	0.55981
341.993	1.49234
342.207	0.96406
342.421	2.26231
342.635	2.14302
342.848	1.52876
343.062	0.17907
343.276	1.42322
343.49	3.95799
343.703	1.37419
343.917	2.67107
344.131	2.776
344.344	1.4055
344.558	1.5073
344.771	1.28767
344.985	3.25547
345.199	3.35029
345.412	2.1044
345.626	2.17613
345.839	0.64901
346.053	1.05162
346.266	1.07983
346.48	2.54208
346.693	2.17172
346.907	2.41382
347.12	1.25961
347.334	2.07792
347.547	2.39976
347.76	1.75248
347.974	2.88849
348.187	2.39942
348.401	1.65269
348.614	1.49125
348.827	1.6474
349.041	2.50222
349.254	0.76415
349.467	1.71002
349.681	0.61469
349.894	1.49513
350.107	2.96656
350.32	3.11097
350.534	0.57936
350.747	1.42544
350.96	1.1044
351.173	1.27767
351.386	1.8067
351.6	1.44638
351.813	1.3687
352.026	1.81381
352.239	0.84717
352.452	1.55059
352.665	2.47612
352.878	1.6713
353.092	3.78302
353.305	2.32023
353.518	2.15733
353.731	1.20242
353.944	2.99312
354.157	1.13424
354.37	0.99293
354.583	0.92233
354.796	0.62116
355.009	2.69747
355.222	1.75439
355.435	1.81003
355.647	2.72177
355.86	0.91187
356.073	1.60903
356.286	1.27613
356.499	2.35157
356.712	2.15345
356.925	2.11209
357.138	2.53226
357.35	0.91225
357.563	1.43046
357.776	1.83963
357.989	1.1747
358.201	2.12823
358.414	1.62373
358.627	2.60274
358.84	1.31637
359.052	0.99139
359.265	0.78762
359.478	2.56035
359.69	-0.35031
359.903	2.019
360.116	2.26758
360.328	0.43107
360.541	2.29801
360.753	0.78316
360.966	1.05452
361.179	1.11987
361.391	1.17131
361.604	0.72541
361.816	1.14311
362.029	0.95601
362.241	0.83607
362.454	1.00527
362.666	0.84345
362.879	1.33127
363.091	1.24329
363.304	0.89148
363.516	1.54273
363.728	0.53046
363.941	1.86484
364.153	0.86187
364.366	0.02307
364.578	0.81897
364.79	1.81189
365.003	1.33804
365.215	1.27592
365.427	1.78555
365.639	2.45288
365.852	1.77848
366.064	3.12439
366.276	1.12039
366.488	1.97671
366.701	1.25123
366.913	1.33834
367.125	1.49227
367.337	1.03497
367.549	1.25238
367.762	1.50028
367.974	1.57364
368.186	0.83543
368.398	2.40644
368.61	1.97664
368.822	2.07874
369.034	1.61822
369.246	1.99495
369.458	3.2838
369.67	0.87138
369.882	2.97282
370.094	0.13519
370.306	2.85749
370.518	1.31401
370.73	0.703
370.942	0.91657
371.154	1.17867
371.366	1.02489
371.578	1.69959
371.79	0.78185
372.002	2.50906
372.214	2.77059
372.425	1.58946
372.637	2.57583
372.849	1.52781
373.061	-0.08327
373.273	1.76021
373.484	1.87124
373.696	2.24128
373.908	0.09755
374.12	2.18756
374.331	1.92202
374.543	0.8465
374.755	0.65148
374.967	1.58496
375.178	1.96636
375.39	1.47601
375.602	1.70493
375.813	0.50327
376.025	0.43849
376.236	1.4443
376.448	1.55002
376.66	1.05547
376.871	1.02807
377.083	2.24395
377.294	2.22462
377.506	1.10954
377.717	2.2074
377.929	1.62223
378.14	0.78785
378.352	1.75688
378.563	1.74867
378.775	2.41233
378.986	0.92492
379.197	1.35269
379.409	1.19999
379.62	2.06491
379.832	1.63621
380.043	1.387
380.254	1.56405
380.466	0.60942
380.677	3.53954
380.888	3.13771
381.1	3.39374
381.311	3.00577
381.522	1.51847
381.733	3.64743
381.945	1.24906
382.156	1.59736
382.367	1.24009
382.578	3.66035
382.789	3.38972
383.001	1.35562
383.212	2.4461
383.423	2.58875
383.634	2.29363
383.845	1.87383
384.056	1.15266
384.267	1.42808
384.478	1.49023
384.69	0.72868
384.901	2.00223
385.112	1.79911
385.323	2.49751
385.534	1.95168
385.745	2.0137
385.956	1.96914
386.167	0.88682
386.378	2.05355
386.588	0.91573
386.799	1.09161
387.01	0.59145
387.221	2.41596
387.432	1.74194
387.643	3.05414
387.854	1.66785
388.065	1.6628
388.275	1.66812
388.486	1.60323
388.697	1.64957
388.908	1.56643
389.119	2.76643
389.329	2.92382
389.54	1.9478
389.751	2.36808
389.962	2.89396
390.172	2.0345
390.383	1.76303
390.594	1.53561
390.804	1.48446
391.015	1.51815
391.226	2.08188
391.436	2.51576
391.647	2.38294
391.858	2.43946
392.068	1.02619
392.279	1.41718
392.489	2.09914
392.7	2.96441
392.91	1.64625
393.121	1.79238
393.331	2.58563
393.542	3.06096
393.752	2.76317
393.963	2.55195
394.173	2.62271
394.384	2.82929
394.594	2.40981
394.804	1.7276
395.015	2.43262
395.225	2.90761
395.436	1.84377
395.646	3.02778
395.856	2.19677
396.067	1.76245
396.277	3.39391
396.487	3.07801
396.697	2.92175
396.908	3.36027
397.118	3.28602
397.328	2.94715
397.538	3.53791
397.749	2.39428
397.959	3.49168
398.169	3.47622
398.379	2.17553
398.589	3.2916
398.8	3.13356
399.01	3.09589
399.22	3.14592
399.43	4.72103
399.64	2.95492
399.85	3.79765
400.06	3.28015
400.27	2.93573
400.48	3.40569
400.69	4.41336
400.9	3.06885
401.11	2.75926
401.32	4.18004
401.53	3.27869
401.74	4.67963
401.95	3.9306
402.16	3.225
402.37	3.84662
402.58	3.34331
402.79	4.28028
403	4.27086
403.209	3.44679
403.419	4.53816
403.629	3.46023
403.839	4.57298
404.049	4.42935
404.258	3.81353
404.468	3.77592
404.678	4.67831
404.888	4.93474
405.097	4.1291
405.307	4.16335
405.517	4.8521
405.727	4.69793
405.936	4.31662
406.146	4.69688
406.356	5.38714
406.565	4.55397
406.775	4.30016
406.984	4.384
407.194	6.07321
407.404	4.78888
407.613	5.10154
407.823	5.37095
408.032	5.58227
408.242	5.41997
408.451	4.55237
408.661	4.7812
408.87	5.97958
409.08	4.2423
409.289	5.3658
409.499	5.18326
409.708	5.07387
409.918	3.74327
410.127	5.24232
410.336	6.23345
410.546	5.81981
410.755	4.95317
410.964	5.06136
411.174	4.68529
411.383	5.79693
411.592	5.55254
411.802	4.66822
412.011	6.18711
412.22	5.39562
412.429	6.51878
412.639	6.59262
412.848	6.21553
413.057	6.73193
413.266	6.14376
413.475	5.59229
413.685	6.15712
413.894	6.34259
414.103	6.36928
414.312	6.5007
414.521	5.67225
414.73	6.13906
414.939	7.21589
415.148	6.35141
415.357	6.17621
415.566	5.92665
415.776	6.09938
415.985	5.84056
416.194	6.60157
416.403	7.43789
416.611	5.42219
416.82	6.01183
417.029	6.59547
417.238	6.00751
417.447	6.08251
417.656	6.43889
417.865	6.25868
418.074	6.70941
418.283	7.30823
418.492	8.19894
418.7	7.94416
418.909	9.44545
419.118	8.43695
419.327	8.81935
419.536	8.77971
419.744	8.77581
419.953	10.24004
420.162	10.43373
420.371	9.46558
420.579	10.08397
420.788	11.28276
420.997	11.25639
421.205	11.59189
421.414	11.29667
421.623	11.57837
421.831	11.20255
422.04	11.61283
422.249	10.61204
422.457	11.07353
422.666	10.30425
422.874	11.31634
423.083	11.51116
423.291	11.29916
423.5	11.1571
423.708	11.56716
423.917	12.20722
424.125	11.62571
424.334	11.51089
424.542	13.42048
424.751	12.76429
424.959	12.33087
425.167	12.47446
425.376	12.36748
425.584	11.07591
425.793	10.98179
426.001	9.94392
426.209	10.31865
426.418	9.00108
426.626	8.39611
426.834	8.09524
427.042	8.06042
