Data from WindowProjectSample3_Transmission__64__00064.txt Node

Date: Sun May 04 11:44:58 EDT 2025
User: jessi
Spectrometer: SR400872
Trigger mode: 0
Integration Time (sec): 5.000050E-1
Scans to average: 20
Electric dark correction enabled: true
Nonlinearity correction enabled: true
Boxcar width: 0
XAxis mode: Wavelengths
Number of Pixels in Spectrum: 3648
>>>>>Begin Spectral Data<<<<<
184.909	-1411.43381
185.132	-1263.07417
185.355	-1524.9584
185.578	-1541.26894
185.801	1233.24604
186.024	-1299.10493
186.247	-23204.62232
186.47	-2264.7816
186.693	-3568.358
186.916	-732.52991
187.139	-960.91052
187.362	-1172.53353
187.585	-1198.48146
187.808	-1103.87384
188.031	656.09391
188.254	-1092.43511
188.476	-796.29757
188.699	-1015.28883
188.922	275.73584
189.145	-1001.24088
189.368	6669.68519
189.591	3152.84787
189.813	-4149.95738
190.036	-1402.00228
190.259	-7749.85526
190.482	-3201.67638
190.705	-2892.82364
190.927	-1912.33128
191.15	-1344.02
191.373	-3743.37557
191.595	31394.45877
191.818	-3070.6461
192.041	-949.66236
192.263	-1602.09647
192.486	-895.48897
192.709	-1891.23174
192.931	-4761.40172
193.154	-1371.25375
193.377	-1623.36956
193.599	1199.13446
193.822	8499.87239
194.044	-10139.89633
194.267	-3453.69187
194.489	19.65649
194.712	-1926.76968
194.934	-2618.94007
195.157	-574.40617
195.379	-4710.68283
195.602	-1551.94484
195.824	-2435.21899
196.047	2513.44362
196.269	-1282.4674
196.492	-1389.45541
196.714	-964.86403
196.936	-2068.34174
197.159	-3953.94508
197.381	-1179.7073
197.604	-8584.70561
197.826	-2367.65796
198.048	-2245.78882
198.271	-1460.67308
198.493	-2360.91895
198.715	-3165.46086
198.938	-8012.89843
199.16	-4624.39111
199.382	-1476.10638
199.604	-1538.46512
199.827	-3854.78056
200.049	-18503.40932
200.271	-1211.2235
200.493	-4392.22007
200.715	-1065.61961
200.938	-889.17027
201.16	-927.34517
201.382	-2990.59721
201.604	-3658.34685
201.826	-1222.23242
202.048	-1707.15483
202.27	-1122.44709
202.492	-1487.3859
202.715	-1759.53575
202.937	-4182.46985
203.159	-4592.69953
203.381	6774.93982
203.603	-1349.09558
203.825	6142.87142
204.047	-2679.50374
204.269	3695.18789
204.491	-2221.6303
204.713	-1568.23251
204.935	-1035.40468
205.156	-3989.65919
205.378	-2694.98575
205.6	-1534.53686
205.822	-1631.08835
206.044	1302.40301
206.266	-18918.82566
206.488	-1375.40438
206.71	-2996.285
206.932	23907.46401
207.153	-1371.16555
207.375	-2692.32072
207.597	-1305.66242
207.819	-1541.98205
208.041	-1275.89838
208.262	-1295.69805
208.484	-1847.29306
208.706	-9016.25439
208.927	-1943.34147
209.149	-9845.18953
209.371	-1341.64683
209.593	1029.04976
209.814	-2246.96126
210.036	461.51317
210.258	-1398.64602
210.479	-2835.56589
210.701	-6297.56325
210.922	-2602.38901
211.144	4213.91542
211.366	-2225.2933
211.587	1620.4007
211.809	-2305.7754
212.03	168703.35659
212.252	523.55531
212.473	-39086.77942
212.695	3220.78261
212.916	-2860.3921
213.138	811.08126
213.359	-1215.25212
213.581	-8845.33061
213.802	-1318.44551
214.024	-5801.40441
214.245	3230.31039
214.466	474.95131
214.688	-2175.61713
214.909	-1704.79235
215.131	-3331.78012
215.352	16962.41514
215.573	-1605.92366
215.795	-4510.03522
216.016	-1899.00827
216.237	1229.3752
216.459	10059.78049
216.68	-1595.2961
216.901	-3692.16132
217.122	18470.67643
217.344	-1788.84685
217.565	-1907.82176
217.786	-2352.22418
218.007	4402.07132
218.228	6192.52189
218.45	-2699.62447
218.671	19601.93769
218.892	-3210.81813
219.113	-7534.63283
219.334	-71.19994
219.555	-14800.3585
219.776	-2195.68392
219.997	-2500.9174
220.219	-2614.54005
220.44	7807.46125
220.661	8756.15727
220.882	-4991.34166
221.103	2481.96987
221.324	7844.31939
221.545	-9556.77442
221.766	-2357.43785
221.987	1101.99433
222.208	1673.2097
222.429	-1552.5837
222.65	152.84345
222.87	749.21363
223.091	3422.86585
223.312	510.54899
223.533	5572.64213
223.754	-4835.49421
223.975	1724.34013
224.196	1142.8968
224.417	6111.39223
224.637	652.08028
224.858	70.82941
225.079	769.70244
225.3	483.26368
225.521	-2075.25942
225.741	602.16349
225.962	613.63477
226.183	119.37358
226.404	1310.96812
226.624	470.79083
226.845	680.6959
227.066	480.68073
227.286	271.02557
227.507	128.91163
227.728	101.20445
227.948	204.49612
228.169	61.93107
228.389	67.42875
228.61	40.75651
228.831	53.16312
229.051	3.40735
229.272	32.5533
229.492	45.87458
229.713	13.83955
229.933	32.78198
230.154	28.35302
230.374	48.46163
230.595	36.37737
230.815	23.40941
231.036	34.78244
231.256	-3.81611
231.477	62.96686
231.697	36.16899
231.917	39.32276
232.138	54.73855
232.358	109.59181
232.579	92.22572
232.799	15.50458
233.019	82.99894
233.24	98.3976
233.46	34.94052
233.68	47.99694
233.901	35.19157
234.121	23.59933
234.341	9.5577
234.561	-5.45387
234.782	17.62798
235.002	58.79032
235.222	0.23832
235.442	50.50815
235.662	24.86541
235.883	52.11638
236.103	42.11748
236.323	29.9008
236.543	24.74887
236.763	33.2917
236.983	33.03615
237.203	36.14784
237.423	48.75449
237.643	75.00134
237.864	63.58877
238.084	16.37407
238.304	22.15769
238.524	39.22627
238.744	33.09593
238.964	56.4066
239.184	48.31528
239.404	53.33978
239.624	28.23749
239.843	45.92391
240.063	27.78522
240.283	17.89111
240.503	20.06206
240.723	20.67206
240.943	13.18621
241.163	17.01895
241.383	12.24331
241.603	6.38357
241.822	7.21862
242.042	5.42893
242.262	7.18636
242.482	7.45457
242.702	8.97475
242.921	3.02053
243.141	6.31065
243.361	5.70522
243.581	8.43372
243.8	7.19881
244.02	4.56376
244.24	8.36739
244.459	7.80863
244.679	15.9265
244.899	9.84724
245.118	12.2863
245.338	10.96678
245.558	11.55116
245.777	7.12172
245.997	8.31958
246.216	8.55477
246.436	5.15798
246.655	3.66269
246.875	2.81167
247.094	5.47782
247.314	2.05103
247.533	3.38287
247.753	3.78358
247.972	3.15217
248.192	1.14742
248.411	1.89617
248.631	3.2427
248.85	4.09958
249.07	4.00368
249.289	5.54657
249.508	4.14044
249.728	6.08621
249.947	6.51148
250.166	7.97383
250.386	4.31638
250.605	5.91521
250.824	9.66056
251.044	6.18445
251.263	19.23408
251.482	11.76176
251.701	9.73767
251.921	0.11265
252.14	3.24062
252.359	4.2049
252.578	8.75745
252.798	3.22024
253.017	7.61944
253.236	3.84283
253.455	4.93092
253.674	10.05611
253.893	4.40557
254.112	6.9802
254.331	10.26418
254.551	8.30933
254.77	4.005
254.989	11.49273
255.208	8.71304
255.427	13.45202
255.646	11.18149
255.865	17.15558
256.084	7.33804
256.303	9.27778
256.522	11.07088
256.741	2.93211
256.96	3.11189
257.179	7.20371
257.397	8.82536
257.616	5.01127
257.835	5.59964
258.054	12.96696
258.273	8.71012
258.492	9.1448
258.711	5.73904
258.93	2.72714
259.148	3.96871
259.367	3.85369
259.586	4.78551
259.805	2.25616
260.023	4.05522
260.242	3.04765
260.461	2.4746
260.68	1.25548
260.898	3.67229
261.117	1.35828
261.336	0.88768
261.554	3.27469
261.773	3.18935
261.992	0.7624
262.21	3.10542
262.429	3.44317
262.648	5.98094
262.866	7.00864
263.085	5.1837
263.303	4.11317
263.522	7.55359
263.74	7.53892
263.959	12.7785
264.178	6.58971
264.396	5.4869
264.615	3.96919
264.833	9.35355
265.051	7.83566
265.27	8.97423
265.488	9.03988
265.707	5.68298
265.925	8.85485
266.144	4.43041
266.362	4.93095
266.58	4.85757
266.799	4.24563
267.017	4.9642
267.235	4.71686
267.454	3.00356
267.672	1.63896
267.89	3.65135
268.109	4.06634
268.327	3.99624
268.545	0.98338
268.763	3.4474
268.982	1.63418
269.2	4.34633
269.418	2.86012
269.636	1.91402
269.854	3.93134
270.073	2.9343
270.291	1.88736
270.509	1.69297
270.727	3.74584
270.945	6.19561
271.163	6.05362
271.381	1.49825
271.599	2.78871
271.817	4.20122
272.036	1.45595
272.254	2.9711
272.472	2.02716
272.69	2.02315
272.908	2.17872
273.126	3.51828
273.344	4.54169
273.562	1.6428
273.779	2.34024
273.997	3.62956
274.215	3.51568
274.433	2.61217
274.651	3.95403
274.869	3.91872
275.087	2.97891
275.305	3.7117
275.523	2.44135
275.74	2.48482
275.958	4.77334
276.176	6.8576
276.394	2.3019
276.612	2.92474
276.829	2.95134
277.047	2.46352
277.265	2.60095
277.483	3.07307
277.7	3.36971
277.918	3.0332
278.136	5.18328
278.353	2.65427
278.571	1.58914
278.789	4.13969
279.006	0.91705
279.224	2.67643
279.442	4.25922
279.659	3.08754
279.877	2.07232
280.094	4.57494
280.312	0.94661
280.529	2.97405
280.747	1.23286
280.964	2.46707
281.182	4.78336
281.399	2.60164
281.617	3.06397
281.834	2.27445
282.052	1.66141
282.269	2.81279
282.487	2.09029
282.704	2.0537
282.921	1.95074
283.139	2.85467
283.356	3.29019
283.574	3.44724
283.791	1.54177
284.008	4.39489
284.226	2.66909
284.443	2.87305
284.66	3.64799
284.877	3.10081
285.095	1.90307
285.312	1.45422
285.529	0.88114
285.746	0.78351
285.964	1.7804
286.181	1.25528
286.398	1.64362
286.615	2.40267
286.832	2.39665
287.05	0.60452
287.267	1.71409
287.484	1.74099
287.701	2.39605
287.918	2.25241
288.135	2.31526
288.352	1.07288
288.569	1.28392
288.786	2.24869
289.003	1.69514
289.22	2.61082
289.437	1.52784
289.654	2.41847
289.871	2.55141
290.088	2.49799
290.305	1.979
290.522	1.64084
290.739	1.80557
290.956	2.63685
291.173	3.09261
291.39	2.94874
291.607	2.06643
291.824	1.66106
292.04	1.1931
292.257	2.70066
292.474	2.87291
292.691	1.76793
292.908	0.92423
293.125	1.62033
293.341	1.08688
293.558	4.24285
293.775	1.85881
293.992	2.07247
294.208	0.69216
294.425	1.31536
294.642	1.66854
294.858	2.50135
295.075	0.7107
295.292	1.8662
295.508	2.17406
295.725	2.96531
295.942	1.58305
296.158	1.26642
296.375	1.92695
296.591	1.42454
296.808	1.53425
297.024	1.84208
297.241	1.96536
297.458	2.07813
297.674	0.33771
297.891	1.71491
298.107	1.44903
298.323	1.07355
298.54	2.41298
298.756	1.30785
298.973	0.63419
299.189	2.62588
299.406	1.23842
299.622	2.58617
299.838	2.66684
300.055	2.3074
300.271	0.68312
300.487	1.07145
300.704	1.204
300.92	0.75832
301.136	3.36484
301.353	2.62169
301.569	1.80667
301.785	2.03347
302.001	2.34767
302.218	2.1052
302.434	2.22286
302.65	0.86831
302.866	1.40511
303.083	3.61343
303.299	3.53212
303.515	1.88021
303.731	2.09863
303.947	0.87722
304.163	1.40291
304.379	1.92398
304.595	2.20324
304.812	1.39298
305.028	1.2011
305.244	1.67235
305.46	2.34829
305.676	2.55556
305.892	2.94623
306.108	2.2693
306.324	1.65541
306.54	3.30619
306.756	2.26386
306.972	2.20486
307.187	1.62179
307.403	3.10928
307.619	1.39393
307.835	2.7875
308.051	2.84851
308.267	1.05551
308.483	2.67285
308.699	2.20404
308.914	1.8379
309.13	1.85605
309.346	0.711
309.562	1.01353
309.778	0.67564
309.993	2.2106
310.209	1.78609
310.425	0.87235
310.641	1.66087
310.856	1.04969
311.072	0.97291
311.288	1.75539
311.503	1.87043
311.719	0.53404
311.935	0.53704
312.15	2.07134
312.366	1.83307
312.581	2.17702
312.797	1.75546
313.013	2.32361
313.228	1.36874
313.444	1.80268
313.659	1.13905
313.875	2.0577
314.09	1.74605
314.306	2.96705
314.521	2.45756
314.737	2.34481
314.952	1.9801
315.168	1.92917
315.383	2.08861
315.599	1.62718
315.814	1.73098
316.029	2.49191
316.245	0.97388
316.46	0.50995
316.675	2.85425
316.891	3.4551
317.106	4.13641
317.321	2.31098
317.537	2.22058
317.752	2.61829
317.967	2.54828
318.183	1.35381
318.398	1.62858
318.613	2.63212
318.828	2.95282
319.043	2.56095
319.259	1.65603
319.474	2.08173
319.689	2.86117
319.904	0.58129
320.119	2.62606
320.334	2.1088
320.549	1.73666
320.765	2.90533
320.98	2.26887
321.195	2.62956
321.41	1.92003
321.625	2.622
321.84	3.26375
322.055	3.31976
322.27	1.48628
322.485	1.1812
322.7	2.26363
322.915	2.75008
323.13	1.29715
323.345	3.05373
323.56	2.31256
323.775	2.499
323.989	2.37005
324.204	2.00951
324.419	2.5622
324.634	0.96536
324.849	1.87901
325.064	3.44834
325.279	2.60716
325.493	2.25761
325.708	2.69045
325.923	1.44531
326.138	1.49542
326.352	3.14494
326.567	2.56303
326.782	1.6926
326.997	1.50059
327.211	2.40753
327.426	2.27684
327.641	1.82053
327.855	0.7791
328.07	2.46835
328.285	3.43584
328.499	1.87139
328.714	2.24731
328.928	2.56349
329.143	2.06811
329.358	2.96209
329.572	2.7502
329.787	3.00802
330.001	4.18426
330.216	1.0288
330.43	3.36867
330.645	3.33239
330.859	2.8338
331.074	1.3555
331.288	2.07115
331.503	3.31622
331.717	1.21304
331.931	2.04636
332.146	2.35654
332.36	3.64266
332.575	2.44634
332.789	2.18288
333.003	2.0092
333.218	2.47695
333.432	1.54935
333.646	2.67037
333.86	3.34078
334.075	3.40512
334.289	1.61764
334.503	1.2756
334.717	2.57858
334.932	2.44732
335.146	2.8932
335.36	1.69434
335.574	2.7267
335.788	2.56294
336.003	2.96893
336.217	2.88585
336.431	2.3598
336.645	1.73897
336.859	1.25597
337.073	2.13999
337.287	2.11904
337.501	1.26784
337.715	2.34244
337.929	2.45766
338.143	1.31032
338.357	1.98273
338.571	1.52854
338.785	2.55855
338.999	1.63123
339.213	1.736
339.427	1.12661
339.641	3.03121
339.855	1.82166
340.069	1.59218
340.283	2.9091
340.497	3.23201
340.711	2.47065
340.924	2.01787
341.138	1.47008
341.352	1.14298
341.566	2.17322
341.78	0.80669
341.993	1.67662
342.207	1.41175
342.421	2.24749
342.635	1.99972
342.848	1.7228
343.062	0.46879
343.276	1.60218
343.49	3.61313
343.703	1.63624
343.917	2.73902
344.131	2.76208
344.344	1.5269
344.558	1.73565
344.771	1.34048
344.985	2.81631
345.199	3.24619
345.412	2.18208
345.626	2.3594
345.839	0.8514
346.053	1.29578
346.266	1.38156
346.48	2.51307
346.693	2.28336
346.907	2.42891
347.12	1.40115
347.334	2.08546
347.547	2.2122
347.76	1.90928
347.974	2.87707
348.187	2.37366
348.401	1.93426
348.614	1.61242
348.827	1.81937
349.041	2.44235
349.254	0.90891
349.467	1.90665
349.681	1.31323
349.894	1.63203
350.107	2.80513
350.32	3.39118
350.534	1.04816
350.747	1.82122
350.96	1.44712
351.173	1.55174
351.386	1.70736
351.6	1.68474
351.813	1.68182
352.026	2.03286
352.239	1.1595
352.452	1.86541
352.665	2.76642
352.878	1.793
353.092	3.55672
353.305	2.48861
353.518	2.08906
353.731	1.43529
353.944	2.67684
354.157	1.58424
354.37	1.50125
354.583	1.2924
354.796	0.92198
355.009	2.76123
355.222	2.13411
355.435	2.01834
355.647	2.73927
355.86	1.46556
356.073	1.97746
356.286	1.63005
356.499	2.52507
356.712	2.36905
356.925	2.17232
357.138	2.56407
357.35	1.30733
357.563	1.68673
357.776	1.97115
357.989	1.88167
358.201	2.30481
358.414	2.14379
358.627	2.69831
358.84	1.76135
359.052	1.23755
359.265	1.29318
359.478	2.49956
359.69	0.34134
359.903	2.48445
360.116	2.52058
360.328	0.93312
360.541	2.38457
360.753	1.39839
360.966	1.60793
361.179	1.68475
361.391	1.62976
361.604	1.36974
361.816	1.70931
362.029	1.60337
362.241	1.38194
362.454	1.6832
362.666	1.41119
362.879	1.98693
363.091	1.68184
363.304	1.40021
363.516	1.80526
363.728	1.16354
363.941	2.1398
364.153	1.75701
364.366	0.59185
364.578	1.24595
364.79	2.19826
365.003	1.97115
365.215	1.62938
365.427	2.28493
365.639	2.69184
365.852	2.00494
366.064	2.94792
366.276	1.70141
366.488	2.201
366.701	1.71828
366.913	1.78803
367.125	1.79629
367.337	1.53081
367.549	1.62294
367.762	1.93641
367.974	1.9797
368.186	1.67269
368.398	2.60486
368.61	2.34714
368.822	2.46066
369.034	1.89293
369.246	2.46198
369.458	3.52492
369.67	1.40853
369.882	3.17562
370.094	0.75651
370.306	2.94197
370.518	1.72246
370.73	1.67519
370.942	1.55562
371.154	1.88801
371.366	1.7231
371.578	2.31139
371.79	1.66701
372.002	2.71459
372.214	3.2353
372.425	2.14962
372.637	2.93754
372.849	2.27636
373.061	0.72498
373.273	2.37343
373.484	2.38556
373.696	2.58999
373.908	0.61756
374.12	2.75592
374.331	2.39949
374.543	1.58158
374.755	1.37542
374.967	2.11841
375.178	2.63958
375.39	1.93301
375.602	2.11203
375.813	1.17844
376.025	1.34147
376.236	2.03375
376.448	2.20179
376.66	1.86766
376.871	1.82161
377.083	2.53467
377.294	2.80088
377.506	1.81392
377.717	2.82543
377.929	2.14519
378.14	1.65368
378.352	2.34802
378.563	2.45003
378.775	2.86013
378.986	1.62772
379.197	2.26304
379.409	1.68247
379.62	2.60306
379.832	2.22667
380.043	1.98979
380.254	2.26207
380.466	1.39626
380.677	3.77232
380.888	3.42047
381.1	3.78166
381.311	3.67301
381.522	2.20914
381.733	4.00814
381.945	2.04628
382.156	2.18293
382.367	1.86327
382.578	3.88209
382.789	3.87747
383.001	1.83847
383.212	3.14767
383.423	3.20852
383.634	2.889
383.845	2.60504
384.056	1.95835
384.267	2.24284
384.478	2.2149
384.69	1.6273
384.901	2.50776
385.112	2.49079
385.323	3.27065
385.534	2.49423
385.745	2.38696
385.956	2.52798
386.167	1.64949
386.378	2.68273
386.588	1.68747
386.799	1.79768
387.01	1.36727
387.221	2.78154
387.432	2.27986
387.643	3.41421
387.854	2.07791
388.065	2.12024
388.275	2.21548
388.486	1.99511
388.697	2.22991
388.908	2.11652
389.119	2.95524
389.329	3.3439
389.54	2.31171
389.751	2.53039
389.962	3.12409
390.172	2.4791
390.383	2.09834
390.594	1.90002
390.804	1.97728
391.015	2.01385
391.226	2.33647
391.436	2.72834
391.647	2.52024
391.858	2.75184
392.068	1.42012
392.279	1.72622
392.489	2.45624
392.7	2.84918
392.91	1.77306
393.121	1.95086
393.331	2.63545
393.542	2.96306
393.752	2.76903
393.963	2.50124
394.173	2.46603
394.384	2.81999
394.594	2.36101
394.804	1.76241
395.015	2.5283
395.225	2.87082
395.436	1.80162
395.646	2.75898
395.856	2.08253
396.067	1.68709
396.277	2.94847
396.487	2.7438
396.697	2.57985
396.908	2.97848
397.118	2.84506
397.328	2.53174
397.538	3.00047
397.749	2.18147
397.959	3.01741
398.169	2.83109
398.379	1.68407
398.589	2.82486
398.8	2.54151
399.01	2.56119
399.22	2.31562
399.43	3.70212
399.64	2.34825
399.85	2.86055
400.06	2.4609
400.27	2.13063
400.48	2.53757
400.69	3.29296
400.9	2.22829
401.11	2.04686
401.32	2.99653
401.53	2.25637
401.74	3.39737
401.95	2.88481
402.16	2.12791
402.37	2.8943
402.58	2.20681
402.79	2.92682
403	2.97666
403.209	2.16334
403.419	2.96415
403.629	2.23742
403.839	2.98066
404.049	3.02458
404.258	2.15424
404.468	2.03932
404.678	2.88717
404.888	2.99883
405.097	2.17358
405.307	2.51308
405.517	2.8644
405.727	2.74466
405.936	2.35708
406.146	2.66903
406.356	3.30522
406.565	2.49671
406.775	2.3423
406.984	2.32193
407.194	3.57836
407.404	2.62495
407.613	2.79628
407.823	2.99704
408.032	3.32205
408.242	3.23545
408.451	2.35036
408.661	2.64771
408.87	3.63957
409.08	2.26731
409.289	2.83163
409.499	2.76838
409.708	2.59183
409.918	1.55825
410.127	2.64561
410.336	3.47831
410.546	3.06092
410.755	2.52909
410.964	2.39111
411.174	2.23181
411.383	2.97237
411.592	2.87879
411.802	2.13771
412.011	3.23073
412.22	2.70493
412.429	3.58397
412.639	3.47948
412.848	3.3949
413.057	3.60663
413.266	3.35724
413.475	2.73349
413.685	3.09335
413.894	3.28744
414.103	3.34788
414.312	3.12701
414.521	2.69789
414.73	2.93366
414.939	3.72015
415.148	3.05483
415.357	2.92876
415.566	2.58882
415.776	2.64017
415.985	2.50832
416.194	3.18595
416.403	3.67739
416.611	2.15943
416.82	2.55154
417.029	2.95716
417.238	2.68045
417.447	2.61664
417.656	2.96865
417.865	2.95324
418.074	3.20433
418.283	3.56302
418.492	4.31113
418.7	4.18009
418.909	5.06985
419.118	4.06408
419.327	4.36541
419.536	4.19596
419.744	3.87433
419.953	5.05637
420.162	5.15054
420.371	4.24663
420.579	4.27153
420.788	5.31415
420.997	5.35647
421.205	5.43687
421.414	5.08409
421.623	5.15994
421.831	4.68209
422.04	5.45894
422.249	4.47288
422.457	5.03795
422.666	4.42271
422.874	5.40792
423.083	5.40256
423.291	5.39406
423.5	5.13826
423.708	5.27516
423.917	5.88411
424.125	5.21752
424.334	4.97485
424.542	6.80602
424.751	5.97124
424.959	5.70972
425.167	5.91824
425.376	5.88802
425.584	4.90397
425.793	5.09457
426.001	4.20213
426.209	4.80948
426.418	3.86348
426.626	3.75621
426.834	3.41007
