Data from WindowProjectSample_Transmission__6__00006__02016932855209398.txt Node

Date: Mon May 05 16:41:28 EDT 2025
User: jessi
Spectrometer: SR400872
Trigger mode: 0
Integration Time (sec): 5.000010E-1
Scans to average: 20
Electric dark correction enabled: true
Nonlinearity correction enabled: true
Boxcar width: 0
XAxis mode: Wavelengths
Number of Pixels in Spectrum: 3648
>>>>>Begin Spectral Data<<<<<
184.909	19081.11773
185.132	-4731.94614
185.355	-2763.41469
185.578	-16277.40586
185.801	1148.08094
186.024	9493.01055
186.247	-1708.78603
186.47	1074.82362
186.693	377.73734
186.916	268.07785
187.139	-3507.72273
187.362	3101.75398
187.585	3757.27619
187.808	3191.91418
188.031	18.77937
188.254	-46659.51509
188.476	-1566.97873
188.699	5995.31235
188.922	574.42488
189.145	-14347.27956
189.368	-590.12224
189.591	-1169.59997
189.813	2923.6293
190.036	-43878.32892
190.259	-824.48525
190.482	-4279.49784
190.705	6673.84106
190.927	-2443.2709
191.15	12565.25412
191.373	3021.2231
191.595	-8457.2878
191.818	-3932.12435
192.041	-6596.86842
192.263	-3043.45552
192.486	-843.3808
192.709	-3688.4782
192.931	7619.24769
193.154	-26700.0833
193.377	-2612.04203
193.599	-2445.95773
193.822	-8844.68301
194.044	-1877.30338
194.267	1168.35371
194.489	201.66006
194.712	-41639.9592
194.934	-30280.23688
195.157	1164.69145
195.379	1375.56782
195.602	-6935.88654
195.824	-1245.74125
196.047	-8246.2195
196.269	2548.24733
196.492	-5596.3314
196.714	26940.80856
196.936	-7601.78268
197.159	-1138.77505
197.381	1194.33105
197.604	448.28918
197.826	11360.71557
198.048	-10366.76142
198.271	-2608.58719
198.493	7116.85204
198.715	2141.40272
198.938	-440.76285
199.16	7070.2186
199.382	-97575.33115
199.604	2602.18466
199.827	-1000.81396
200.049	-2807.25074
200.271	13180.01631
200.493	1130.34493
200.715	-35578.03179
200.938	-5827.46152
201.16	-4016.99364
201.382	18921.31845
201.604	2162.03375
201.826	2131.80279
202.048	-1799.45288
202.27	-1700.58332
202.492	-35127.94541
202.715	2761.74924
202.937	-4163.78711
203.159	-5622.18771
203.381	1393.68275
203.603	6462.77868
203.825	5939.39603
204.047	1978.39685
204.269	-2721.56018
204.491	2126.8828
204.713	5496.76096
204.935	-462789.01045
205.156	1155.60827
205.378	-2593.06175
205.6	1592.5568
205.822	141356.01262
206.044	-943.16693
206.266	1441.13458
206.488	4425.64831
206.71	-5053.93951
206.932	1106.36357
207.153	11405.45067
207.375	-6353.95918
207.597	-35795.92032
207.819	-2682.0025
208.041	2264.28094
208.262	490.93234
208.484	685.90097
208.706	-741.61424
208.927	-838.13629
209.149	480.725
209.371	-2741.45597
209.593	-305.72904
209.814	-788.45527
210.036	444.25159
210.258	-592.01078
210.479	1767.40625
210.701	1541.44761
210.922	3210.56532
211.144	-3691.25989
211.366	1940.93462
211.587	5702.30232
211.809	-7677.98035
212.03	2316.31503
212.252	424.46312
212.473	1973.18659
212.695	-6416.28168
212.916	2688.30198
213.138	-657.54437
213.359	3484.33907
213.581	4982.08181
213.802	-691.6641
214.024	1085.86811
214.245	2015.98817
214.466	2428.15277
214.688	-3000.62137
214.909	-1132.3057
215.131	-1620.44078
215.352	-3133.94744
215.573	13736.80891
215.795	4937.34854
216.016	5357.11762
216.237	793.98136
216.459	3394.64341
216.68	1762.76854
216.901	4646.28831
217.122	-2975.10296
217.344	-11208.47771
217.565	3307.05944
217.786	8393.06416
218.007	17266.67128
218.228	-716.50702
218.45	5491.99676
218.671	778.06891
218.892	35683.71656
219.113	1435.81985
219.334	-272.90907
219.555	9547.52077
219.776	2857.35932
219.997	20462.71604
220.219	2721.91887
220.44	-10069.69788
220.661	456.82398
220.882	1388.81076
221.103	-1080.5442
221.324	2175.49939
221.545	2136.64601
221.766	-8175.04754
221.987	899.13499
222.208	1565.92066
222.429	4064.5894
222.65	228.5538
222.87	17344.3877
223.091	689.59654
223.312	573.80074
223.533	1350.08457
223.754	1398.72859
223.975	1249.35116
224.196	1876.24696
224.417	1266.36578
224.637	586.85969
224.858	68.67242
225.079	1043.38068
225.3	621.69443
225.521	3599.61004
225.741	469.75841
225.962	505.76444
226.183	121.63146
226.404	630.83625
226.624	436.1179
226.845	613.0137
227.066	373.68028
227.286	240.15435
227.507	113.94268
227.728	109.71247
227.948	230.26269
228.169	72.86255
228.389	83.07309
228.61	45.6732
228.831	61.55954
229.051	0.03715
229.272	38.03341
229.492	53.41764
229.713	14.21576
229.933	35.20455
230.154	30.2227
230.374	50.91417
230.595	36.13629
230.815	21.57159
231.036	37.42975
231.256	-8.50312
231.477	65.91384
231.697	35.88454
231.917	37.23332
232.138	51.00734
232.358	101.2822
232.579	101.24974
232.799	19.70142
233.019	95.53154
233.24	109.08118
233.46	36.15012
233.68	61.43039
233.901	45.00001
234.121	22.27931
234.341	10.6757
234.561	-0.16682
234.782	21.90319
235.002	63.58189
235.222	-4.19341
235.442	60.13421
235.662	31.58318
235.883	58.78253
236.103	47.68774
236.323	37.67883
236.543	27.08072
236.763	36.69839
236.983	40.17516
237.203	38.80078
237.423	52.07094
237.643	82.24647
237.864	68.61813
238.084	18.49193
238.304	24.33807
238.524	43.43817
238.744	35.78525
238.964	73.33454
239.184	58.10537
239.404	60.12573
239.624	33.29829
239.843	56.32639
240.063	33.94212
240.283	20.90638
240.503	25.19322
240.723	23.44856
240.943	13.31271
241.163	18.96996
241.383	14.08071
241.603	6.59101
241.822	9.37875
242.042	5.61132
242.262	7.72849
242.482	9.03714
242.702	9.93092
242.921	2.21503
243.141	6.45627
243.361	5.41346
243.581	8.56331
243.8	6.97871
244.02	5.14577
244.24	8.21996
244.459	8.42326
244.679	17.09102
244.899	10.92471
245.118	11.54837
245.338	11.57687
245.558	13.64178
245.777	7.22107
245.997	10.05813
246.216	9.91232
246.436	6.12696
246.655	4.50495
246.875	3.01592
247.094	5.95984
247.314	2.02205
247.533	3.42636
247.753	4.04195
247.972	2.95957
248.192	0.97891
248.411	1.77654
248.631	3.3296
248.85	4.42743
249.07	3.65669
249.289	5.44187
249.508	4.79274
249.728	6.15161
249.947	6.60742
250.166	8.08249
250.386	3.81968
250.605	6.69194
250.824	10.0393
251.044	7.27912
251.263	27.11641
251.482	14.04836
251.701	11.0733
251.921	-0.38863
252.14	2.98701
252.359	3.6489
252.578	9.3455
252.798	3.32821
253.017	8.52431
253.236	4.05323
253.455	5.16921
253.674	9.4716
253.893	4.62139
254.112	7.83872
254.331	10.15052
254.551	8.33774
254.77	3.0737
254.989	12.48555
255.208	9.10573
255.427	14.04481
255.646	11.23135
255.865	20.49438
256.084	7.89512
256.303	9.41882
256.522	12.63147
256.741	2.7406
256.96	2.54512
257.179	7.89742
257.397	10.48192
257.616	5.87723
257.835	5.53726
258.054	14.01967
258.273	9.8286
258.492	10.58502
258.711	5.99616
258.93	2.94737
259.148	4.44584
259.367	4.37645
259.586	5.33709
259.805	2.22822
260.023	4.89222
260.242	3.61935
260.461	2.68646
260.68	1.41798
260.898	4.25315
261.117	1.36505
261.336	0.83938
261.554	3.28198
261.773	3.47797
261.992	0.74523
262.21	3.20559
262.429	3.28451
262.648	6.86322
262.866	7.71291
263.085	4.90957
263.303	4.66742
263.522	8.11784
263.74	8.29775
263.959	14.35213
264.178	6.10733
264.396	6.16301
264.615	4.45894
264.833	9.75894
265.051	8.48579
265.27	10.2225
265.488	10.32352
265.707	5.91217
265.925	10.04774
266.144	4.41827
266.362	5.73642
266.58	5.17381
266.799	4.61273
267.017	5.80419
267.235	5.28211
267.454	3.03326
267.672	1.57245
267.89	3.81611
268.109	4.27965
268.327	4.16441
268.545	1.18801
268.763	3.56223
268.982	1.3559
269.2	3.83196
269.418	2.9616
269.636	1.50427
269.854	4.46975
270.073	2.94977
270.291	1.81256
270.509	1.47593
270.727	4.14404
270.945	6.79772
271.163	6.59426
271.381	1.48414
271.599	3.11555
271.817	5.16933
272.036	1.73339
272.254	2.94711
272.472	2.29179
272.69	2.31326
272.908	2.21962
273.126	4.32473
273.344	5.01733
273.562	1.77305
273.779	2.45972
273.997	3.63204
274.215	3.98182
274.433	2.73203
274.651	4.07897
274.869	4.36463
275.087	2.57626
275.305	3.7439
275.523	2.50379
275.74	2.76871
275.958	5.06589
276.176	7.67847
276.394	2.31297
276.612	2.99535
276.829	3.03498
277.047	2.4382
277.265	3.01785
277.483	3.47152
277.7	4.13133
277.918	3.25804
278.136	5.89477
278.353	2.68222
278.571	1.92274
278.789	4.00123
279.006	0.88344
279.224	3.11682
279.442	4.92269
279.659	3.53958
279.877	2.24218
280.094	5.55593
280.312	1.1454
280.529	3.29683
280.747	0.84528
280.964	2.4152
281.182	5.66405
281.399	2.60485
281.617	3.5562
281.834	2.44276
282.052	1.7416
282.269	2.93141
282.487	2.26805
282.704	1.9973
282.921	2.28598
283.139	3.109
283.356	3.83646
283.574	3.59413
283.791	1.72074
284.008	5.32511
284.226	2.70795
284.443	3.10327
284.66	4.24911
284.877	3.3729
285.095	1.91473
285.312	1.56911
285.529	0.90883
285.746	0.67821
285.964	1.87918
286.181	1.29584
286.398	1.79277
286.615	2.53445
286.832	2.43925
287.05	0.61754
287.267	1.75396
287.484	1.79575
287.701	2.3948
287.918	2.52061
288.135	2.4919
288.352	1.18586
288.569	1.41341
288.786	2.33602
289.003	1.99156
289.22	2.78426
289.437	1.54722
289.654	2.74961
289.871	2.85249
290.088	2.71023
290.305	2.06702
290.522	1.65258
290.739	1.96198
290.956	3.01018
291.173	3.23053
291.39	3.12568
291.607	2.16307
291.824	1.41517
292.04	1.14209
292.257	2.67574
292.474	3.06418
292.691	1.94394
292.908	0.87126
293.125	1.64059
293.341	1.04538
293.558	4.61707
293.775	1.81727
293.992	1.96296
294.208	0.80543
294.425	1.41632
294.642	1.9067
294.858	2.82248
295.075	0.79305
295.292	2.0398
295.508	2.36175
295.725	4.01993
295.942	1.89939
296.158	1.63617
296.375	2.34998
296.591	2.01987
296.808	2.19303
297.024	2.48287
297.241	2.78341
297.458	3.02258
297.674	1.00931
297.891	2.48039
298.107	2.43791
298.323	1.95227
298.54	3.96754
298.756	2.27315
298.973	1.67491
299.189	4.09709
299.406	2.39118
299.622	3.78531
299.838	3.87962
300.055	3.77388
300.271	2.04542
300.487	2.4266
300.704	2.788
300.92	2.23142
301.136	5.56537
301.353	3.95797
301.569	3.34459
301.785	3.6391
302.001	4.20974
302.218	3.74236
302.434	3.91922
302.65	2.50112
302.866	3.27269
303.083	5.59368
303.299	5.58817
303.515	3.96047
303.731	4.09859
303.947	2.70106
304.163	3.356
304.379	3.97514
304.595	4.27275
304.812	3.24743
305.028	3.36669
305.244	3.77492
305.46	4.59912
305.676	4.70675
305.892	5.02794
306.108	4.56419
306.324	3.59836
306.54	5.77423
306.756	4.15273
306.972	4.39601
307.187	4.01059
307.403	5.16081
307.619	3.70454
307.835	5.02154
308.051	5.38778
308.267	3.24973
308.483	5.214
308.699	4.64227
308.914	4.21334
309.13	4.00003
309.346	3.23886
309.562	3.37884
309.778	3.23917
309.993	4.80717
310.209	4.53123
310.425	3.54235
310.641	4.38728
310.856	3.6373
311.072	3.63073
311.288	4.43157
311.503	4.66766
311.719	3.08447
311.935	3.17164
312.15	4.98585
312.366	4.60526
312.581	4.80008
312.797	4.62884
313.013	5.22519
313.228	3.87537
313.444	4.27638
313.659	3.7852
313.875	4.79568
314.09	4.30501
314.306	5.69527
314.521	4.99573
314.737	5.07297
314.952	4.35926
315.168	4.4442
315.383	4.6201
315.599	4.0689
315.814	4.187
316.029	4.90489
316.245	3.48828
316.46	2.98688
316.675	5.29787
316.891	5.74181
317.106	6.56599
317.321	4.59615
317.537	5.04733
317.752	5.28473
317.967	5.05831
318.183	3.5763
318.398	4.0448
318.613	5.18974
318.828	5.74881
319.043	4.99961
319.259	4.35522
319.474	4.61762
319.689	5.55128
319.904	3.06259
320.119	5.26866
320.334	4.66031
320.549	4.25615
320.765	5.19852
320.98	4.78133
321.195	4.73935
321.41	4.48182
321.625	5.09031
321.84	5.98556
322.055	5.91849
322.27	3.92003
322.485	3.4474
322.7	4.90991
322.915	4.9809
323.13	3.99072
323.345	5.974
323.56	5.71203
323.775	5.15223
323.989	5.069
324.204	4.76925
324.419	5.55144
324.634	3.70792
324.849	4.5684
325.064	7.7412
325.279	5.5913
325.493	4.97423
325.708	5.29557
325.923	4.09659
326.138	4.47121
326.352	6.0725
326.567	5.47487
326.782	4.31965
326.997	4.42197
327.211	5.27329
327.426	4.88774
327.641	4.43539
327.855	3.5179
328.07	5.27522
328.285	6.2868
328.499	4.20525
328.714	4.92071
328.928	5.17126
329.143	4.71529
329.358	5.73686
329.572	5.61963
329.787	5.89772
330.001	6.88834
330.216	3.75512
330.43	6.52752
330.645	5.91981
330.859	5.56803
331.074	3.99439
331.288	5.04544
331.503	6.17047
331.717	3.91833
331.931	4.9666
332.146	5.25958
332.36	6.43688
332.575	5.1289
332.789	5.04606
333.003	5.2302
333.218	5.34919
333.432	4.28218
333.646	5.76651
333.86	6.4077
334.075	6.22108
334.289	4.47984
334.503	3.8902
334.717	5.42961
334.932	5.24651
335.146	5.78528
335.36	4.32096
335.574	5.42842
335.788	5.18513
336.003	5.89169
336.217	5.67068
336.431	5.5249
336.645	4.51969
336.859	4.0416
337.073	4.97272
337.287	5.42863
337.501	4.07594
337.715	5.53376
337.929	5.75769
338.143	4.24053
338.357	4.94531
338.571	4.72036
338.785	5.84683
338.999	4.83659
339.213	4.65951
339.427	4.1923
339.641	6.21323
339.855	4.73728
340.069	4.50474
340.283	5.8815
340.497	6.626
340.711	5.50851
340.924	5.19419
341.138	4.30872
341.352	4.19151
341.566	5.47542
341.78	4.01555
341.993	4.89549
342.207	4.55248
342.421	5.37271
342.635	5.1047
342.848	4.9761
343.062	3.42517
343.276	4.60932
343.49	6.73644
343.703	4.67272
343.917	6.14311
344.131	6.20835
344.344	4.5177
344.558	5.07206
344.771	4.2705
344.985	6.42459
345.199	6.64482
345.412	5.54301
345.626	5.63975
345.839	4.19226
346.053	4.36684
346.266	4.61524
346.48	5.82748
346.693	5.62288
346.907	5.50069
347.12	4.42325
347.334	5.40298
347.547	5.53315
347.76	5.19991
347.974	6.11668
348.187	5.45976
348.401	4.96876
348.614	4.54481
348.827	4.928
349.041	5.55052
349.254	3.89964
349.467	4.96837
349.681	4.65014
349.894	4.65469
350.107	6.27997
350.32	6.7789
350.534	4.24346
350.747	4.95079
350.96	4.69362
351.173	4.85012
351.386	5.15295
351.6	4.7767
351.813	4.9119
352.026	5.0659
352.239	4.48924
352.452	5.04822
352.665	6.25571
352.878	5.32834
353.092	6.94073
353.305	5.96861
353.518	5.56367
353.731	4.69675
353.944	6.26705
354.157	5.09828
354.37	4.96258
354.583	4.6775
354.796	4.5126
355.009	6.0919
355.222	5.77808
355.435	5.55128
355.647	6.28838
355.86	4.9403
356.073	5.6786
356.286	5.10696
356.499	6.22426
356.712	6.00361
356.925	6.15505
357.138	6.19967
357.35	5.05065
357.563	5.45888
357.776	5.88033
357.989	5.69772
358.201	6.148
358.414	5.91151
358.627	6.79938
358.84	5.61264
359.052	4.91744
359.265	5.16086
359.478	6.52333
359.69	4.14181
359.903	6.39432
360.116	6.58303
360.328	4.82664
360.541	6.49644
360.753	5.46588
360.966	5.8287
361.179	5.91683
361.391	5.77558
361.604	5.73001
361.816	5.86799
362.029	5.8682
362.241	5.66299
362.454	5.99263
362.666	5.59266
362.879	6.63358
363.091	5.90565
363.304	5.82239
363.516	5.87976
363.728	5.47039
363.941	6.39487
364.153	6.18843
364.366	4.74159
364.578	5.36847
364.79	6.15491
365.003	6.15804
365.215	5.66168
365.427	6.54977
365.639	6.72103
365.852	6.09035
366.064	7.48777
366.276	5.95999
366.488	6.30879
366.701	6.00601
366.913	6.00128
367.125	5.98397
367.337	5.50964
367.549	5.84893
367.762	6.1813
367.974	6.15864
368.186	6.03961
368.398	6.67387
368.61	6.51609
368.822	6.62623
369.034	6.05764
369.246	6.70829
369.458	8.34647
369.67	5.72502
369.882	7.38256
370.094	5.12181
370.306	7.38985
370.518	6.25504
370.73	5.86301
370.942	6.08176
371.154	6.47568
371.366	6.24844
371.578	6.84659
371.79	6.32325
372.002	7.25041
372.214	7.98564
372.425	6.56839
372.637	7.55516
372.849	6.80041
373.061	5.28285
373.273	6.88662
373.484	6.71995
373.696	7.26386
373.908	5.2852
374.12	7.33662
374.331	6.98947
374.543	6.12884
374.755	6.1254
374.967	6.86289
375.178	7.38581
375.39	6.48952
375.602	6.93512
375.813	5.85808
376.025	6.39404
376.236	7.11147
376.448	7.36429
376.66	6.9285
376.871	7.10185
377.083	7.76122
377.294	8.4049
377.506	6.84668
377.717	7.99167
377.929	7.40752
378.14	7.10721
378.352	7.46815
378.563	7.68351
378.775	8.1936
378.986	6.76293
379.197	7.45723
379.409	6.75425
379.62	7.73476
379.832	7.54737
380.043	7.2324
380.254	7.58535
380.466	6.74146
380.677	9.35091
380.888	8.66794
381.1	9.23397
381.311	9.33014
381.522	7.68027
381.733	9.35467
381.945	7.49174
382.156	7.53227
382.367	7.33813
382.578	9.4233
382.789	9.61259
383.001	7.31348
383.212	8.97609
383.423	9.00749
383.634	8.69984
383.845	8.49486
384.056	7.85467
384.267	8.10278
384.478	8.06279
384.69	7.36302
384.901	8.45273
385.112	8.23117
385.323	9.31615
385.534	8.41926
385.745	8.38485
385.956	8.40615
386.167	7.80299
386.378	8.57826
386.588	7.96102
386.799	7.84328
387.01	7.63158
387.221	8.99718
387.432	8.50796
387.643	9.4083
387.854	8.30804
388.065	8.31793
388.275	8.49881
388.486	8.11879
388.697	8.53783
388.908	8.3268
389.119	9.27106
389.329	9.43816
389.54	8.79553
389.751	8.81895
389.962	9.63331
390.172	8.81322
390.383	8.66308
390.594	8.48359
390.804	8.62696
391.015	8.50331
391.226	9.11695
391.436	9.27096
391.647	9.29147
391.858	9.48925
392.068	8.27178
392.279	8.55882
392.489	9.4561
392.7	9.79084
392.91	8.83937
393.121	8.78839
393.331	9.5024
393.542	10.0886
393.752	9.52709
393.963	9.63968
394.173	9.54612
394.384	9.64016
394.594	9.43959
394.804	8.85882
395.015	9.49712
395.225	9.7742
395.436	8.94908
395.646	9.78475
395.856	9.27992
396.067	8.63001
396.277	9.97891
396.487	9.75277
396.697	9.91265
396.908	9.78247
397.118	9.87507
397.328	9.62256
397.538	10.17471
397.749	9.20113
397.959	10.2805
398.169	9.94315
398.379	8.9172
398.589	10.03664
398.8	9.88347
399.01	9.82289
399.22	9.62866
399.43	11.05918
399.64	9.89693
399.85	10.22719
400.06	10.01526
400.27	9.41954
400.48	9.8441
400.69	10.76309
400.9	9.72158
401.11	9.16585
401.32	10.39709
401.53	9.6205
401.74	10.92852
401.95	10.29418
402.16	9.73173
402.37	10.10647
402.58	9.80722
402.79	10.49915
403	10.76843
403.209	9.85696
403.419	10.92805
403.629	9.73631
403.839	10.99619
404.049	10.93774
404.258	10.3441
404.468	10.05143
404.678	10.89023
404.888	11.20885
405.097	10.3908
405.307	10.47071
405.517	11.02166
405.727	10.89338
405.936	10.5074
406.146	10.67924
406.356	11.35001
406.565	10.57812
406.775	10.49451
406.984	10.42977
407.194	11.65508
407.404	10.57142
407.613	11.00314
407.823	11.06582
408.032	11.27438
408.242	11.38042
408.451	10.47769
408.661	10.64533
408.87	11.84778
409.08	10.194
409.289	11.04692
409.499	11.03012
409.708	11.03415
409.918	9.84185
410.127	11.19685
410.336	11.94767
410.546	11.50287
410.755	10.88783
410.964	10.97612
411.174	10.62727
411.383	11.31783
411.592	11.25665
411.802	10.68414
412.011	11.59544
412.22	11.05269
412.429	12.15716
412.639	11.97058
412.848	11.59351
413.057	12.0104
413.266	11.87967
413.475	11.31314
413.685	11.61444
413.894	11.87444
414.103	11.90118
414.312	11.85048
414.521	11.22165
414.73	11.59474
414.939	12.6939
415.148	11.96002
415.357	11.78566
415.566	11.47486
415.776	11.51735
415.985	11.60987
416.194	12.27141
416.403	12.95838
416.611	11.16111
416.82	11.71456
417.029	12.15346
417.238	11.82391
417.447	11.57992
417.656	11.98455
417.865	11.76187
418.074	12.02841
418.283	12.24612
418.492	12.74209
418.7	12.59507
418.909	13.6128
419.118	12.91212
419.327	13.32002
419.536	13.31799
419.744	13.58924
419.953	14.83162
420.162	15.08135
420.371	14.77647
420.579	15.56815
420.788	16.42725
420.997	16.40724
421.205	16.99926
421.414	16.75923
421.623	17.0158
421.831	16.55818
422.04	17.06188
422.249	16.10438
422.457	16.42176
422.666	15.48052
422.874	16.23303
423.083	16.36189
423.291	16.39181
423.5	16.38158
423.708	16.8374
423.917	17.30904
424.125	16.96288
424.334	16.96395
424.542	18.35578
424.751	18.07882
424.959	17.62978
425.167	17.63904
425.376	17.38532
425.584	15.97827
425.793	15.79031
