Data from WindowProjectSample_Transmission__34__00034.txt Node

Date: Sat May 03 15:40:17 EDT 2025
User: jessi
Spectrometer: SR400872
Trigger mode: 0
Integration Time (sec): 5.000010E-1
Scans to average: 6
Electric dark correction enabled: true
Nonlinearity correction enabled: true
Boxcar width: 0
XAxis mode: Wavelengths
Number of Pixels in Spectrum: 3648
>>>>>Begin Spectral Data<<<<<
184.909	18842.02902
185.132	2617.74518
185.355	24691.52897
185.578	-8344.24101
185.801	163.35864
186.024	-1494.22039
186.247	778.54331
186.47	1881.25247
186.693	15.13073
186.916	-596.25164
187.139	-2650.40004
187.362	1668.05988
187.585	2852.51539
187.808	-3854.94852
188.031	363.02357
188.254	-1268.80371
188.476	-822.25524
188.699	2638.69143
188.922	-590.24406
189.145	-9914.25984
189.368	-390.8329
189.591	-1192.64878
189.813	-1668.0076
190.036	1308.43822
190.259	1645.58096
190.482	568.82737
190.705	10640.94274
190.927	-1012.13105
191.15	3565.73952
191.373	2224.01334
191.595	-2232.27815
191.818	2625.60535
192.041	-226.18493
192.263	2895.68625
192.486	2378.69163
192.709	-5305.31587
192.931	2843.62324
193.154	-6139.23734
193.377	192014.08681
193.599	1461.7108
193.822	1904.85883
194.044	-2447.75213
194.267	503.21781
194.489	-237.33088
194.712	1457.59294
194.934	3435.34737
195.157	-13427.35781
195.379	911.25847
195.602	2231.15964
195.824	1956.96372
196.047	2446.71448
196.269	3032.90288
196.492	3507.83144
196.714	2801.96063
196.936	1170.50607
197.159	1415.34405
197.381	-2508.55739
197.604	-1154.41901
197.826	6300.4176
198.048	3257.94546
198.271	4297.43725
198.493	2221.33652
198.715	-5967.11515
198.938	-541.67596
199.16	1736.68437
199.382	1393.18079
199.604	-662.10165
199.827	7822.52262
200.049	982.98448
200.271	-3024.76347
200.493	-54349.09637
200.715	2383.85983
200.938	7056.73452
201.16	-7288.43629
201.382	-2981.96417
201.604	-1983.45798
201.826	6630.98732
202.048	907.41551
202.27	-17871.6506
202.492	4735.21159
202.715	-1141.50784
202.937	4431.3354
203.159	-2239.37146
203.381	812.76398
203.603	-3377.96042
203.825	-2403.61946
204.047	3425.62106
204.269	-2316.16231
204.491	2289.70689
204.713	1887.9776
204.935	15643.7533
205.156	1762.40484
205.378	-8358.37787
205.6	-4255.33313
205.822	9123.06508
206.044	-733.00319
206.266	3855.28451
206.488	1024.89567
206.71	28639.56333
206.932	2466.39234
207.153	-4829.41102
207.375	-1856.22076
207.597	8755.66891
207.819	4384.84519
208.041	2322.78495
208.262	-2839.73698
208.484	-1180.97392
208.706	-2597.21294
208.927	26910.79806
209.149	970.5692
209.371	-6706.19869
209.593	1269.69295
209.814	5443.52228
210.036	-2910.74296
210.258	-4938.08722
210.479	-1286.81956
210.701	922.95786
210.922	6896.19708
211.144	-1176.8975
211.366	-6161.30843
211.587	-610.4785
211.809	9571.35259
212.03	-1310.30224
212.252	-2734.63384
212.473	780.32313
212.695	-1918.68132
212.916	2847.08273
213.138	3057.83413
213.359	-1950.21812
213.581	6425.82435
213.802	-1727.59541
214.024	17272.82192
214.245	-3470.86831
214.466	-493.43696
214.688	1699.37331
214.909	853.56996
215.131	-105406.90547
215.352	1824.11587
215.573	2539.08798
215.795	2901.56894
216.016	4432.15165
216.237	-588.00013
216.459	6529.55009
216.68	104625.43765
216.901	-83202.24701
217.122	2163.65053
217.344	5798.41852
217.565	-60306.15734
217.786	1580.95496
218.007	1585.33119
218.228	-1442.02086
218.45	-1223.37822
218.671	-1236.72963
218.892	1164.48064
219.113	-19304.5772
219.334	-477.9842
219.555	-5349.68592
219.776	1709.95468
219.997	3437.38852
220.219	1084.97796
220.44	2261.49799
220.661	-3294.64926
220.882	3489.33949
221.103	-1176.94571
221.324	1012.73379
221.545	2339.40762
221.766	-6006.5096
221.987	4200.82739
222.208	-1826.44687
222.429	3519.70155
222.65	-141.78544
222.87	-511.50748
223.091	8162.86288
223.312	2805.97748
223.533	6514.52745
223.754	1876.46758
223.975	1419.18714
224.196	-11553.30143
224.417	998.45362
224.637	821.99494
224.858	-118.41472
225.079	6527.75236
225.3	552.88515
225.521	2064.69591
225.741	1628.59761
225.962	757.23051
226.183	300.22643
226.404	674.92493
226.624	574.75523
226.845	390.48304
227.066	426.19139
227.286	191.92868
227.507	95.08081
227.728	87.02981
227.948	124.15875
228.169	40.36633
228.389	49.10902
228.61	26.29503
228.831	36.15601
229.051	3.41057
229.272	21.2436
229.492	31.76392
229.713	8.86026
229.933	24.51335
230.154	19.63201
230.374	31.9406
230.595	23.77163
230.815	13.99108
231.036	23.25991
231.256	-6.8156
231.477	41.17897
231.697	24.29385
231.917	22.91771
232.138	35.03367
232.358	74.69308
232.579	64.0907
232.799	9.73105
233.019	67.86128
233.24	82.12126
233.46	27.58078
233.68	39.22877
233.901	32.82488
234.121	17.45095
234.341	6.4282
234.561	-2.11403
234.782	15.06518
235.002	46.8166
235.222	-1.00087
235.442	41.33083
235.662	20.79919
235.883	43.70971
236.103	39.51149
236.323	26.48775
236.543	18.27171
236.763	30.71206
236.983	30.10529
237.203	31.14819
237.423	43.27572
237.643	62.58627
237.864	54.5402
238.084	14.05155
238.304	22.18497
238.524	34.9316
238.744	27.43089
238.964	48.09267
239.184	42.80144
239.404	44.01416
239.624	24.93942
239.843	42.14632
240.063	23.28842
240.283	16.8822
240.503	16.5879
240.723	17.27403
240.943	9.21467
241.163	13.7805
241.383	9.69025
241.603	4.74378
241.822	6.15979
242.042	4.58862
242.262	5.84625
242.482	7.22681
242.702	8.35014
242.921	2.80696
243.141	6.18137
243.361	5.02151
243.581	7.4313
243.8	6.17595
244.02	4.21379
244.24	8.22775
244.459	7.17836
244.679	14.35624
244.899	9.38599
245.118	11.44375
245.338	9.20095
245.558	11.39197
245.777	6.48992
245.997	7.27082
246.216	7.51457
246.436	3.95046
246.655	3.47484
246.875	2.54296
247.094	5.00403
247.314	1.83348
247.533	2.56318
247.753	3.78023
247.972	2.69798
248.192	1.07295
248.411	1.71586
248.631	3.1357
248.85	3.92121
249.07	2.8752
249.289	5.55744
249.508	3.91055
249.728	6.44165
249.947	6.66852
250.166	7.04167
250.386	4.36814
250.605	5.22703
250.824	8.85169
251.044	6.45735
251.263	21.04862
251.482	10.39676
251.701	9.84762
251.921	-0.11825
252.14	2.82332
252.359	3.9584
252.578	8.12203
252.798	2.96777
253.017	7.80882
253.236	3.50381
253.455	4.8466
253.674	10.16346
253.893	4.90666
254.112	6.31677
254.331	9.38622
254.551	7.74225
254.77	2.78844
254.989	11.73371
255.208	10.35837
255.427	12.28083
255.646	10.4875
255.865	18.0676
256.084	6.17211
256.303	9.02976
256.522	11.25117
256.741	2.61443
256.96	2.86357
257.179	6.37047
257.397	8.42225
257.616	4.40312
257.835	5.15623
258.054	12.23198
258.273	7.77481
258.492	9.20756
258.711	5.07895
258.93	2.2131
259.148	3.2158
259.367	3.31378
259.586	4.20413
259.805	1.99719
260.023	4.16812
260.242	3.24554
260.461	2.49887
260.68	1.26042
260.898	3.80965
261.117	1.06054
261.336	0.84106
261.554	3.25921
261.773	3.11783
261.992	0.77124
262.21	3.2899
262.429	3.66445
262.648	6.43636
262.866	7.09283
263.085	4.59219
263.303	4.60927
263.522	7.86416
263.74	7.82685
263.959	12.61668
264.178	6.68701
264.396	5.64636
264.615	4.03974
264.833	9.67932
265.051	8.44044
265.27	8.19779
265.488	8.976
265.707	6.09515
265.925	9.03817
266.144	4.01749
266.362	5.42339
266.58	5.1368
266.799	4.10865
267.017	5.32901
267.235	4.64769
267.454	2.72889
267.672	1.89179
267.89	4.14083
268.109	4.32261
268.327	3.68033
268.545	1.08904
268.763	3.64192
268.982	1.4929
269.2	4.61118
269.418	2.62171
269.636	1.95726
269.854	3.67264
270.073	2.92726
270.291	1.55534
270.509	1.81524
270.727	3.72865
270.945	5.89946
271.163	6.44995
271.381	1.60898
271.599	2.70952
271.817	4.59669
272.036	1.39871
272.254	2.69699
272.472	2.05792
272.69	2.04302
272.908	2.38201
273.126	3.86885
273.344	4.67759
273.562	1.91789
273.779	2.16038
273.997	3.37668
274.215	3.81385
274.433	2.66961
274.651	4.19168
274.869	4.09656
275.087	2.43902
275.305	3.81668
275.523	1.90905
275.74	2.88149
275.958	4.82879
276.176	6.84217
276.394	2.33487
276.612	2.70306
276.829	2.95878
277.047	2.11804
277.265	2.49002
277.483	3.53813
277.7	3.73675
277.918	3.1525
278.136	5.45094
278.353	2.82183
278.571	1.50829
278.789	4.4361
279.006	1.01929
279.224	2.37357
279.442	4.45877
279.659	2.92938
279.877	2.12621
280.094	4.91193
280.312	1.13192
280.529	2.89685
280.747	0.78743
280.964	2.52695
281.182	5.32101
281.399	2.35389
281.617	3.41363
281.834	2.53929
282.052	1.87729
282.269	2.8511
282.487	2.31485
282.704	1.778
282.921	1.88304
283.139	2.83392
283.356	3.84066
283.574	3.32689
283.791	1.84424
284.008	4.75884
284.226	2.42549
284.443	2.90217
284.66	3.79584
284.877	3.04012
285.095	1.93828
285.312	1.25051
285.529	1.05394
285.746	0.96109
285.964	1.88278
286.181	1.19551
286.398	1.79185
286.615	2.40784
286.832	2.39403
287.05	0.66491
287.267	1.43657
287.484	2.38547
287.701	2.4678
287.918	2.35488
288.135	2.49136
288.352	1.31621
288.569	1.23088
288.786	2.16358
289.003	1.81582
289.22	2.60054
289.437	1.58193
289.654	2.68129
289.871	2.72244
290.088	2.79559
290.305	2.14021
290.522	1.5088
290.739	1.98557
290.956	2.80239
291.173	3.49649
291.39	3.13305
291.607	2.30593
291.824	1.79004
292.04	0.96115
292.257	2.58196
292.474	3.12828
292.691	1.81928
292.908	1.1719
293.125	1.89002
293.341	0.90909
293.558	4.66048
293.775	1.86343
293.992	1.89578
294.208	0.76211
294.425	1.17189
294.642	1.76687
294.858	2.31605
295.075	0.68174
295.292	1.80487
295.508	2.38209
295.725	3.4255
295.942	1.66511
296.158	1.12625
296.375	1.95716
296.591	1.51913
296.808	1.52408
297.024	1.74609
297.241	1.98915
297.458	2.18578
297.674	0.2227
297.891	1.74676
298.107	1.28989
298.323	1.03348
298.54	2.57751
298.756	1.19197
298.973	0.60475
299.189	2.64241
299.406	1.09404
299.622	2.89277
299.838	2.72858
300.055	2.43229
300.271	0.83138
300.487	0.83642
300.704	1.18803
300.92	0.68208
301.136	3.68848
301.353	2.66625
301.569	1.87769
301.785	2.17952
302.001	2.48461
302.218	2.21292
302.434	2.05431
302.65	0.58988
302.866	1.4932
303.083	3.65765
303.299	3.37165
303.515	1.86958
303.731	1.86
303.947	0.76473
304.163	1.04547
304.379	2.07285
304.595	2.45908
304.812	1.47811
305.028	1.06808
305.244	1.55612
305.46	2.67966
305.676	2.736
305.892	3.07537
306.108	2.00196
306.324	1.28796
306.54	3.47312
306.756	2.60864
306.972	2.43498
307.187	1.59295
307.403	3.09313
307.619	1.4187
307.835	2.71811
308.051	3.24407
308.267	0.67655
308.483	2.74917
308.699	2.35187
308.914	1.94549
309.13	1.71778
309.346	0.49143
309.562	1.03738
309.778	0.5128
309.993	2.35748
310.209	1.70991
310.425	0.79884
310.641	1.64849
310.856	0.90069
311.072	0.91407
311.288	1.76391
311.503	1.96033
311.719	0.35162
311.935	0.24945
312.15	2.06853
312.366	1.85759
312.581	2.30032
312.797	1.73375
313.013	2.284
313.228	1.26801
313.444	2.04127
313.659	1.21702
313.875	2.1764
314.09	1.70435
314.306	2.72622
314.521	2.52591
314.737	2.49361
314.952	2.05438
315.168	1.57899
315.383	2.49317
315.599	1.66885
315.814	1.68248
316.029	2.53274
316.245	0.80433
316.46	0.65273
316.675	3.12221
316.891	3.57304
317.106	4.46436
317.321	2.57688
317.537	2.32993
317.752	2.45241
317.967	2.57897
318.183	1.2586
318.398	1.67634
318.613	2.70219
318.828	3.18882
319.043	2.75457
319.259	1.55753
319.474	2.35385
319.689	2.70921
319.904	0.32759
320.119	2.65673
320.334	2.21317
320.549	1.70486
320.765	2.83691
320.98	2.07349
321.195	2.71844
321.41	1.8318
321.625	2.61963
321.84	3.52973
322.055	3.56633
322.27	1.2196
322.485	1.05511
322.7	1.946
322.915	2.92223
323.13	1.25786
323.345	3.36055
323.56	2.3693
323.775	2.65126
323.989	2.43152
324.204	2.0919
324.419	2.65663
324.634	0.67485
324.849	1.7558
325.064	3.99197
325.279	2.93248
325.493	2.60108
325.708	2.95907
325.923	1.23105
326.138	1.28939
326.352	3.42388
326.567	2.81043
326.782	1.68676
326.997	1.31509
327.211	2.49294
327.426	2.3537
327.641	1.59154
327.855	0.56309
328.07	2.43365
328.285	3.44521
328.499	1.66643
328.714	2.6191
328.928	2.69655
329.143	2.21169
329.358	2.82562
329.572	3.04778
329.787	3.20984
330.001	4.37494
330.216	0.88524
330.43	3.52492
330.645	3.65556
330.859	2.70655
331.074	1.48646
331.288	2.16704
331.503	3.27245
331.717	1.18954
331.931	1.85028
332.146	1.99873
332.36	3.61745
332.575	2.51403
332.789	2.26409
333.003	1.74639
333.218	2.54129
333.432	1.63458
333.646	2.55594
333.86	3.30017
334.075	3.44956
334.289	1.64599
334.503	1.29843
334.717	2.47218
334.932	2.39378
335.146	3.41911
335.36	1.89317
335.574	2.43569
335.788	2.37777
336.003	3.17485
336.217	2.67934
336.431	2.6266
336.645	1.38987
336.859	1.09112
337.073	1.86981
337.287	2.1779
337.501	1.07158
337.715	2.23665
337.929	2.6499
338.143	1.03324
338.357	2.24213
338.571	1.15527
338.785	2.34948
338.999	1.65052
339.213	1.7197
339.427	0.68499
339.641	2.94152
339.855	1.95472
340.069	1.5734
340.283	2.99724
340.497	3.58267
340.711	2.29391
340.924	1.49461
341.138	1.07075
341.352	0.83474
341.566	2.20013
341.78	0.51244
341.993	1.62612
342.207	1.17505
342.421	2.26325
342.635	2.18452
342.848	1.44806
343.062	0.22066
343.276	1.45417
343.49	3.97236
343.703	1.3913
343.917	2.55816
344.131	2.69516
344.344	1.25457
344.558	1.37545
344.771	1.1879
344.985	3.18109
345.199	3.36656
345.412	2.20056
345.626	2.23132
345.839	0.63926
346.053	0.91335
346.266	1.01669
346.48	2.59038
346.693	2.1219
346.907	2.53979
347.12	1.19359
347.334	2.1959
347.547	2.16929
347.76	1.64713
347.974	2.92796
348.187	2.28069
348.401	1.72564
348.614	1.50113
348.827	1.69841
349.041	2.61774
349.254	0.57589
349.467	1.76054
349.681	0.70679
349.894	1.3618
350.107	3.1907
350.32	3.09468
350.534	0.45887
350.747	1.53163
350.96	1.15471
351.173	1.3926
351.386	1.75961
351.6	1.50271
351.813	1.30614
352.026	1.95067
352.239	0.82403
352.452	1.59039
352.665	2.39432
352.878	1.61323
353.092	3.86011
353.305	2.32009
353.518	2.04338
353.731	1.18458
353.944	2.98728
354.157	1.18393
354.37	0.95923
354.583	0.96414
354.796	0.63678
355.009	2.64296
355.222	1.87305
355.435	1.87625
355.647	2.56431
355.86	0.85419
356.073	1.49686
356.286	1.41735
356.499	2.34219
356.712	1.94362
356.925	2.10427
357.138	2.50733
357.35	0.92851
357.563	1.39741
357.776	1.91695
357.989	1.20816
358.201	2.08788
358.414	1.65637
358.627	2.65428
358.84	1.47603
359.052	0.88067
359.265	0.70334
359.478	2.54801
359.69	-0.45967
359.903	2.06236
360.116	2.27689
360.328	0.36673
360.541	2.33273
360.753	0.84738
360.966	1.12198
361.179	1.29494
361.391	1.1643
361.604	0.77032
361.816	1.0913
362.029	1.01301
362.241	0.82988
362.454	1.09594
362.666	0.79232
362.879	1.4955
363.091	1.36281
363.304	0.88431
363.516	1.44343
363.728	0.67656
363.941	1.98113
364.153	1.07722
364.366	-0.04674
364.578	0.77267
364.79	1.91501
365.003	1.44796
365.215	1.28715
365.427	1.89367
365.639	2.53743
365.852	1.8722
366.064	3.16578
366.276	1.03297
366.488	2.03144
366.701	1.19063
366.913	1.304
367.125	1.36365
367.337	1.04376
367.549	1.23056
367.762	1.4323
367.974	1.71519
368.186	1.07038
368.398	2.35904
368.61	1.94326
368.822	1.90448
369.034	1.67725
369.246	2.12696
369.458	3.49492
369.67	0.98667
369.882	2.8425
370.094	0.0926
370.306	2.91329
370.518	1.41429
370.73	0.87878
370.942	1.11317
371.154	1.33655
371.366	1.1649
371.578	1.80217
371.79	1.00383
372.002	2.42986
372.214	3.04181
372.425	1.68226
372.637	2.5436
372.849	1.71207
373.061	-0.10445
373.273	1.99215
373.484	2.04238
373.696	2.22985
373.908	0.11772
374.12	2.33467
374.331	2.14
374.543	1.17707
374.755	0.82271
374.967	1.76941
375.178	2.31099
375.39	1.69152
375.602	1.85354
375.813	0.72782
376.025	0.7225
376.236	1.66003
376.448	1.74996
376.66	1.40255
376.871	1.55436
377.083	2.43683
377.294	2.87914
377.506	1.38664
377.717	2.63452
377.929	1.93148
378.14	1.1821
378.352	2.32154
378.563	2.26203
378.775	2.85438
378.986	1.25229
379.197	1.81056
379.409	1.44816
379.62	2.51995
379.832	2.1004
380.043	1.73621
380.254	2.15079
380.466	1.12716
380.677	4.10135
380.888	3.57921
381.1	4.05343
381.311	3.98624
381.522	2.24778
381.733	4.23293
381.945	1.9497
382.156	2.06267
382.367	2.04644
382.578	4.41714
382.789	4.43883
383.001	1.77025
383.212	3.43977
383.423	3.6502
383.634	3.10404
383.845	2.91669
384.056	2.06742
384.267	2.5934
384.478	2.50206
384.69	1.60982
384.901	2.98075
385.112	2.75845
385.323	3.92155
385.534	2.96608
385.745	3.07362
385.956	2.96778
386.167	1.98412
386.378	3.33724
386.588	2.23012
386.799	2.22019
387.01	1.83243
387.221	3.60215
387.432	2.99185
387.643	4.23961
387.854	2.75243
388.065	2.87003
388.275	3.01372
388.486	2.74058
388.697	3.24724
388.908	2.84131
389.119	4.12342
389.329	4.46825
389.54	3.29265
389.751	3.74882
389.962	4.39948
390.172	3.53326
390.383	3.58928
390.594	3.13592
390.804	3.15492
391.015	3.28594
391.226	3.88135
391.436	4.26322
391.647	4.18879
391.858	4.34985
392.068	2.94078
392.279	3.42878
392.489	4.45491
392.7	4.67184
392.91	3.79931
393.121	3.65797
393.331	4.6132
393.542	5.12526
393.752	5.01092
393.963	4.66709
394.173	4.92409
394.384	5.1121
394.594	4.51444
394.804	3.78415
395.015	4.64477
395.225	5.15743
395.436	4.02726
395.646	5.14261
395.856	4.70797
396.067	3.94094
396.277	5.42989
396.487	5.15964
396.697	5.47214
396.908	5.77294
397.118	5.57288
397.328	5.27106
397.538	5.86626
397.749	4.87746
397.959	6.08369
398.169	5.80409
398.379	4.51637
398.589	5.59978
398.8	5.87787
399.01	5.90333
399.22	5.55265
399.43	7.06716
399.64	5.76152
399.85	6.15858
400.06	5.93961
400.27	5.35458
400.48	5.82909
400.69	6.77231
400.9	5.86717
401.11	5.54131
401.32	6.46582
401.53	5.81868
401.74	7.11251
401.95	6.67011
402.16	6.06895
402.37	6.66116
402.58	6.00339
402.79	6.79955
403	7.07303
403.209	6.04904
403.419	7.26363
403.629	6.21387
403.839	7.70884
404.049	7.53044
404.258	6.79046
404.468	6.58477
404.678	7.75017
404.888	7.99759
405.097	7.27157
405.307	7.04501
405.517	7.73364
405.727	7.73135
405.936	6.9515
406.146	7.70075
406.356	8.28252
406.565	7.29997
406.775	7.1957
406.984	7.06834
407.194	8.88608
407.404	7.59612
407.613	7.80502
407.823	8.06892
408.032	8.57948
408.242	8.11864
408.451	7.45848
408.661	7.66295
408.87	8.87684
409.08	7.08634
409.289	8.3214
409.499	8.18757
409.708	7.97719
409.918	6.66158
410.127	8.16719
410.336	9.27165
410.546	8.92386
410.755	7.94513
410.964	7.79293
411.174	7.5671
411.383	8.65481
411.592	8.42963
411.802	7.78097
412.011	8.80473
412.22	8.41343
412.429	9.66957
412.639	9.45148
412.848	9.19592
413.057	9.81457
413.266	9.06083
413.475	8.84704
413.685	9.05055
413.894	9.4331
414.103	9.34658
414.312	9.25739
414.521	8.63047
414.73	9.19168
414.939	10.19483
415.148	9.27463
415.357	9.42798
415.566	8.8826
415.776	8.90252
415.985	8.84663
416.194	9.67571
416.403	10.47218
416.611	8.47577
416.82	9.0101
417.029	9.60571
417.238	9.17877
417.447	9.13077
417.656	9.44718
417.865	9.49924
418.074	9.87139
418.283	10.78928
418.492	11.97004
418.7	11.49868
418.909	13.45565
419.118	12.01036
419.327	12.57729
419.536	12.64703
419.744	12.76361
419.953	14.32347
420.162	14.53103
420.371	13.83299
420.579	14.71725
420.788	15.48718
420.997	15.8894
421.205	16.04425
421.414	15.79751
421.623	16.20298
421.831	15.49451
422.04	15.90429
422.249	14.88887
422.457	15.2053
422.666	14.30558
422.874	15.36082
423.083	15.56309
423.291	15.5994
423.5	15.66679
423.708	15.95763
423.917	16.75849
424.125	15.91931
424.334	15.94815
424.542	17.67462
424.751	17.11343
424.959	16.36162
425.167	16.81126
425.376	16.54866
425.584	14.93732
425.793	14.72424
426.001	13.38317
426.209	13.5261
426.418	12.19884
426.626	11.30273
426.834	11.04727
427.042	10.9094
