Data from WindowProjectSample_Transmission__57__00057.txt Node

Date: Sat May 03 16:55:41 EDT 2025
User: jessi
Spectrometer: SR400872
Trigger mode: 0
Integration Time (sec): 5.000010E-1
Scans to average: 6
Electric dark correction enabled: true
Nonlinearity correction enabled: true
Boxcar width: 0
XAxis mode: Wavelengths
Number of Pixels in Spectrum: 3648
>>>>>Begin Spectral Data<<<<<
184.909	174349.63649
185.132	1631.59658
185.355	-2020.42505
185.578	3373.07094
185.801	-654.77772
186.024	6125.83522
186.247	1180.57003
186.47	878.40564
186.693	-517.49307
186.916	124.83501
187.139	10105.89004
187.362	3352.76068
187.585	2663.01855
187.808	-1243.86064
188.031	-126.28816
188.254	7420.32995
188.476	611.18096
188.699	-4311.66325
188.922	-478.51579
189.145	-4446.41578
189.368	-339.12189
189.591	-958.34645
189.813	-2178.49007
190.036	4590.20234
190.259	3442.80646
190.482	2382.1706
190.705	8905.48515
190.927	-1594.07832
191.15	-1625.94061
191.373	4612.40111
191.595	-1870.18813
191.818	9157.18518
192.041	-175.458
192.263	-2216.16582
192.486	-845.70672
192.709	8960.26145
192.931	-2648.66615
193.154	-1914.98706
193.377	4413.28563
193.599	5853.71101
193.822	-1856.21085
194.044	-1708.45652
194.267	670.76315
194.489	170.03717
194.712	2060.96097
194.934	3456.63203
195.157	-9146.82951
195.379	1861.48374
195.602	5255.30868
195.824	5694.10509
196.047	-8234.98321
196.269	-10620.92055
196.492	-1103.9497
196.714	-5326.40657
196.936	4657.77939
197.159	-2620.18433
197.381	-563.58084
197.604	904.30764
197.826	-3163.25041
198.048	-1234.44023
198.271	-11678.54809
198.493	9268.61723
198.715	-2451.11166
198.938	-670.9002
199.16	-3665.84284
199.382	1772.40152
199.604	-1403.88184
199.827	-1423.71897
200.049	-4319.27571
200.271	2323.13214
200.493	-24982.85426
200.715	5071.06645
200.938	12688.71195
201.16	-234386.41907
201.382	-5961.71718
201.604	-1121.68218
201.826	-6228.88102
202.048	-6811.04637
202.27	-4781.3513
202.492	-3501.04088
202.715	-1378.17797
202.937	-3502.27401
203.159	1067.41847
203.381	-82049.70178
203.603	-1049.95452
203.825	-1508.66518
204.047	2368.32139
204.269	-850.56756
204.491	7040.52964
204.713	-8686.95122
204.935	37284.35877
205.156	1946.19072
205.378	-7462.61588
205.6	-1653.17959
205.822	6184.77244
206.044	-221.43784
206.266	-1974.77984
206.488	716.99032
206.71	-483256.15088
206.932	-14753.81684
207.153	11358.53699
207.375	-2250.81163
207.597	15897.14077
207.819	1607.18727
208.041	6207.30617
208.262	658.46113
208.484	-858.89176
208.706	-904.44122
208.927	10713.76012
209.149	-8276.3586
209.371	-2570.99099
209.593	-2536.31344
209.814	-3739.88236
210.036	2418.34393
210.258	-661.83182
210.479	2212.16369
210.701	764.78859
210.922	3992.97295
211.144	-1375.82773
211.366	5614.04805
211.587	-629.25976
211.809	-3394.1444
212.03	-2281.43913
212.252	-379.27529
212.473	3124.46218
212.695	-816.13788
212.916	-873.30256
213.138	618.12406
213.359	-1208.3408
213.581	-3342.43766
213.802	-1187.163
214.024	10673.23908
214.245	-1069.62663
214.466	-111.04554
214.688	-3689.62923
214.909	-753.83379
215.131	8288.12362
215.352	-1160.22791
215.573	-242235.2365
215.795	4511.89781
216.016	-3866.37062
216.237	-574.11362
216.459	-11387.54045
216.68	-1511.09839
216.901	-1695.09691
217.122	1921.72369
217.344	-8406.6981
217.565	-1586.15416
217.786	23468.40974
218.007	995.26014
218.228	-3731.86816
218.45	-5827.30161
218.671	-1413.22156
218.892	878.74305
219.113	1655.7954
219.334	324.16715
219.555	-6234.26133
219.776	32628.3148
219.997	-6588.30948
220.219	-9027.5325
220.44	-5014.40208
220.661	-1152.34022
220.882	12975.19559
221.103	-842.88802
221.324	2514.66605
221.545	-6403.88037
221.766	-1430.42752
221.987	-515.19953
222.208	1903.95199
222.429	6452.49257
222.65	-166.42656
222.87	-653.19889
223.091	38837.08663
223.312	780.47918
223.533	-1816.53548
223.754	3378.74604
223.975	1693.90011
224.196	-713.62499
224.417	-29419.04476
224.637	-2540.27206
224.858	325.03645
225.079	3591.38885
225.3	1620.03452
225.521	3621.11406
225.741	-2391.55567
225.962	1590.04352
226.183	961.83423
226.404	1860.13131
226.624	1776.8503
226.845	1388.39621
227.066	2499.85206
227.286	665.2826
227.507	385.98223
227.728	404.53345
227.948	529.83191
228.169	111.98152
228.389	121.91679
228.61	55.85395
228.831	86.88877
229.051	10.13076
229.272	45.79589
229.492	61.95874
229.713	21.10224
229.933	45.48943
230.154	43.02126
230.374	67.44036
230.595	56.30792
230.815	39.38093
231.036	54.48456
231.256	-9.55652
231.477	106.92349
231.697	63.44864
231.917	61.71265
232.138	83.8959
232.358	178.5377
232.579	179.55022
232.799	25.10919
233.019	169.52239
233.24	244.43302
233.46	69.63892
233.68	108.29476
233.901	99.23634
234.121	48.13812
234.341	15.37437
234.561	-4.70336
234.782	38.14807
235.002	118.01539
235.222	-3.195
235.442	92.25421
235.662	47.76729
235.883	102.71221
236.103	86.1151
236.323	62.55829
236.543	51.52566
236.763	70.57166
236.983	65.05073
237.203	74.70151
237.423	106.3187
237.643	144.10592
237.864	141.83299
238.084	36.56297
238.304	47.81731
238.524	84.02218
238.744	69.84146
238.964	108.55771
239.184	108.67372
239.404	100.57891
239.624	52.71653
239.843	94.28018
240.063	53.48571
240.283	37.15289
240.503	37.32338
240.723	33.36834
240.943	19.86022
241.163	27.42085
241.383	19.6673
241.603	10.63021
241.822	12.20555
242.042	9.29067
242.262	10.49714
242.482	12.33358
242.702	13.77714
242.921	5.26864
243.141	10.2208
243.361	8.34914
243.581	12.47872
243.8	11.31039
244.02	7.56662
244.24	14.98142
244.459	13.17427
244.679	27.28571
244.899	17.02426
245.118	19.11091
245.338	17.52109
245.558	20.01108
245.777	11.45211
245.997	13.54182
246.216	13.52609
246.436	7.66156
246.655	5.51632
246.875	4.09577
247.094	7.57302
247.314	2.48742
247.533	4.2889
247.753	5.6366
247.972	4.60725
248.192	2.00984
248.411	2.8661
248.631	5.22043
248.85	6.61865
249.07	4.52383
249.289	8.11258
249.508	6.99348
249.728	9.85726
249.947	11.49499
250.166	11.51099
250.386	7.80688
250.605	9.67969
250.824	15.69456
251.044	11.05869
251.263	36.26581
251.482	19.04259
251.701	16.81572
251.921	0.09693
252.14	5.6469
252.359	6.11988
252.578	13.8672
252.798	5.33732
253.017	12.68882
253.236	7.14075
253.455	8.2804
253.674	16.34252
253.893	8.04154
254.112	11.88341
254.331	16.05733
254.551	13.74781
254.77	7.18757
254.989	19.84876
255.208	17.38945
255.427	22.62296
255.646	21.57224
255.865	34.34678
256.084	12.00984
256.303	14.85936
256.522	20.75739
256.741	4.3461
256.96	4.72136
257.179	11.4838
257.397	15.35977
257.616	6.5704
257.835	7.86184
258.054	20.85171
258.273	13.69823
258.492	16.16561
258.711	8.95339
258.93	4.03357
259.148	5.66905
259.367	5.68248
259.586	7.42794
259.805	3.30364
260.023	6.77303
260.242	5.07687
260.461	3.82264
260.68	1.98335
260.898	5.85558
261.117	1.79942
261.336	1.49307
261.554	5.55057
261.773	5.36961
261.992	0.75541
262.21	5.29359
262.429	6.41737
262.648	10.35609
262.866	11.74977
263.085	7.48278
263.303	6.65156
263.522	11.93939
263.74	12.72221
263.959	21.07971
264.178	10.58657
264.396	9.56251
264.615	7.19806
264.833	16.68851
265.051	14.29683
265.27	14.46389
265.488	15.49346
265.707	9.85248
265.925	15.66845
266.144	6.54613
266.362	8.72326
266.58	9.29026
266.799	6.44283
267.017	8.36192
267.235	7.59318
267.454	4.81081
267.672	3.00627
267.89	6.12208
268.109	6.33407
268.327	5.65496
268.545	2.07133
268.763	5.63045
268.982	2.3279
269.2	7.40809
269.418	4.3756
269.636	2.93073
269.854	5.56569
270.073	4.79677
270.291	2.17701
270.509	2.31566
270.727	5.67335
270.945	9.99268
271.163	9.64289
271.381	2.40313
271.599	3.9365
271.817	7.02424
272.036	2.78997
272.254	4.55962
272.472	3.45362
272.69	3.50768
272.908	2.75453
273.126	5.89587
273.344	7.41064
273.562	2.73975
273.779	3.58366
273.997	4.99027
274.215	6.14362
274.433	4.59442
274.651	6.14811
274.869	7.061
275.087	3.83649
275.305	5.74724
275.523	3.3571
275.74	4.57887
275.958	7.55963
276.176	10.95631
276.394	3.51707
276.612	4.44661
276.829	4.60092
277.047	4.01662
277.265	4.60896
277.483	5.5261
277.7	6.10565
277.918	4.91187
278.136	8.53257
278.353	4.03085
278.571	2.38596
278.789	7.20013
279.006	1.27429
279.224	3.92536
279.442	7.35943
279.659	4.69402
279.877	3.77332
280.094	7.78797
280.312	1.57541
280.529	4.96299
280.747	1.27906
280.964	3.6774
281.182	8.4841
281.399	3.57682
281.617	5.28422
281.834	3.8203
282.052	3.22962
282.269	4.41338
282.487	3.72203
282.704	2.9086
282.921	3.51554
283.139	4.49673
283.356	5.97417
283.574	5.05976
283.791	2.97104
284.008	7.52038
284.226	3.85801
284.443	4.78042
284.66	5.8793
284.877	4.63597
285.095	3.18654
285.312	2.03921
285.529	1.57738
285.746	1.21545
285.964	2.92042
286.181	1.75286
286.398	2.74705
286.615	3.58429
286.832	3.3851
287.05	1.09351
287.267	2.55259
287.484	2.87117
287.701	3.75666
287.918	3.75941
288.135	3.55363
288.352	1.70907
288.569	2.24902
288.786	3.44728
289.003	2.6373
289.22	3.7674
289.437	2.63851
289.654	4.08533
289.871	4.22985
290.088	4.29069
290.305	3.20266
290.522	2.34886
290.739	2.81435
290.956	4.28058
291.173	5.15306
291.39	4.8462
291.607	3.37571
291.824	2.75174
292.04	1.64634
292.257	3.83336
292.474	4.30695
292.691	2.61869
292.908	1.58947
293.125	2.48986
293.341	1.42629
293.558	7.09382
293.775	2.91285
293.992	2.81106
294.208	1.27727
294.425	2.03419
294.642	2.63191
294.858	3.94789
295.075	0.99682
295.292	2.82792
295.508	3.50741
295.725	5.1408
295.942	2.48645
296.158	1.53797
296.375	2.68652
296.591	2.11403
296.808	2.37982
297.024	2.56779
297.241	2.83764
297.458	3.25889
297.674	0.32563
297.891	2.50949
298.107	1.77652
298.323	1.48848
298.54	3.79015
298.756	1.70755
298.973	0.8664
299.189	3.98565
299.406	1.64862
299.622	3.91437
299.838	3.93485
300.055	3.45888
300.271	0.90888
300.487	1.45478
300.704	1.55575
300.92	0.99005
301.136	5.44417
301.353	3.69918
301.569	2.70631
301.785	3.12994
302.001	3.76892
302.218	3.26094
302.434	2.93526
302.65	0.99165
302.866	2.35776
303.083	5.233
303.299	5.10434
303.515	2.63284
303.731	3.00511
303.947	0.9634
304.163	1.74565
304.379	3.0374
304.595	3.38361
304.812	1.85305
305.028	1.58664
305.244	2.35837
305.46	3.57599
305.676	3.87992
305.892	4.3943
306.108	2.66854
306.324	2.04595
306.54	5.18319
306.756	3.65014
306.972	3.45857
307.187	2.25081
307.403	4.62105
307.619	1.85111
307.835	3.88759
308.051	4.59613
308.267	1.17873
308.483	4.01098
308.699	3.56477
308.914	2.85505
309.13	2.60567
309.346	0.85271
309.562	1.61977
309.778	0.89435
309.993	3.40484
310.209	2.48137
310.425	1.03426
310.641	2.33328
310.856	1.28177
311.072	1.3122
311.288	2.3634
311.503	2.64983
311.719	0.49205
311.935	0.36721
312.15	2.88205
312.366	2.38937
312.581	3.32851
312.797	2.65666
313.013	3.49221
313.228	2.02359
313.444	2.80269
313.659	1.87252
313.875	3.0725
314.09	2.72488
314.306	4.02724
314.521	3.81327
314.737	3.1154
314.952	3.07836
315.168	2.36057
315.383	3.40865
315.599	2.34674
315.814	2.39432
316.029	3.37476
316.245	0.96723
316.46	0.91204
316.675	4.2483
316.891	4.86392
317.106	6.35924
317.321	3.5584
317.537	3.30823
317.752	3.60326
317.967	3.71478
318.183	1.6211
318.398	2.16433
318.613	4.05336
318.828	4.65439
319.043	3.76293
319.259	2.19329
319.474	3.3158
319.689	4.0935
319.904	0.61062
320.119	3.58038
320.334	2.86139
320.549	2.62457
320.765	4.27643
320.98	2.91425
321.195	3.89214
321.41	2.40251
321.625	3.69842
321.84	5.2367
322.055	5.03542
322.27	1.7827
322.485	1.25135
322.7	2.9644
322.915	4.04879
323.13	1.60152
323.345	4.74595
323.56	3.8887
323.775	3.61874
323.989	3.44715
324.204	2.78652
324.419	3.77437
324.634	1.24886
324.849	2.3691
325.064	5.73533
325.279	3.86484
325.493	3.51662
325.708	4.07513
325.923	1.6954
326.138	1.7055
326.352	4.70432
326.567	3.6831
326.782	2.32963
326.997	1.73724
327.211	3.31072
327.426	3.1946
327.641	2.38653
327.855	0.71742
328.07	3.53702
328.285	4.95197
328.499	2.46574
328.714	3.42717
328.928	3.77979
329.143	2.99122
329.358	4.09217
329.572	3.82855
329.787	4.29965
330.001	6.03538
330.216	1.13682
330.43	4.92296
330.645	4.91289
330.859	3.90208
331.074	2.04097
331.288	3.20862
331.503	4.35519
331.717	1.5609
331.931	2.64332
332.146	2.74845
332.36	4.78823
332.575	3.43085
332.789	2.9963
333.003	2.50744
333.218	3.49456
333.432	2.42409
333.646	3.54798
333.86	4.48836
334.075	5.04794
334.289	2.38075
334.503	1.89061
334.717	3.39321
334.932	3.46822
335.146	4.56397
335.36	2.66569
335.574	3.66467
335.788	3.44806
336.003	4.6152
336.217	3.61107
336.431	3.67862
336.645	2.04984
336.859	1.41494
337.073	2.71708
337.287	2.96344
337.501	1.66805
337.715	2.96172
337.929	3.54863
338.143	1.80193
338.357	2.75588
338.571	1.68398
338.785	3.04052
338.999	2.14016
339.213	2.3102
339.427	1.14887
339.641	4.18799
339.855	2.80906
340.069	2.1075
340.283	3.88987
340.497	4.88417
340.711	3.22313
340.924	2.03689
341.138	1.56272
341.352	1.15939
341.566	3.18958
341.78	0.73959
341.993	2.03709
342.207	1.60105
342.421	3.0573
342.635	2.95691
342.848	1.93772
343.062	0.32023
343.276	1.96901
343.49	5.30362
343.703	1.8699
343.917	3.63018
344.131	3.75336
344.344	1.87869
344.558	2.00774
344.771	1.74309
344.985	4.4854
345.199	4.52099
345.412	2.93229
345.626	3.01621
345.839	0.8491
346.053	1.41157
346.266	1.41923
346.48	3.64043
346.693	2.97094
346.907	3.27736
347.12	1.76423
347.334	2.97502
347.547	3.04538
347.76	2.43502
347.974	3.90315
348.187	3.07167
348.401	2.26403
348.614	1.96254
348.827	2.08458
349.041	3.29445
349.254	0.65125
349.467	2.32126
349.681	1.10245
349.894	1.76838
350.107	3.94676
350.32	4.40916
350.534	0.60975
350.747	1.9824
350.96	1.50871
351.173	1.82971
351.386	2.06055
351.6	2.09476
351.813	1.68055
352.026	2.67538
352.239	1.03394
352.452	1.9098
352.665	3.66626
352.878	2.14565
353.092	4.77103
353.305	3.03715
353.518	2.76795
353.731	1.79401
353.944	3.87111
354.157	1.6281
354.37	1.36225
354.583	1.13943
354.796	0.69859
355.009	3.80185
355.222	2.45865
355.435	2.44213
355.647	3.75076
355.86	1.12031
356.073	2.22968
356.286	1.85533
356.499	3.1793
356.712	2.4014
356.925	2.73777
357.138	3.38883
357.35	1.31871
357.563	1.98027
357.776	2.43312
357.989	1.84198
358.201	2.95826
358.414	2.31494
358.627	3.39281
358.84	2.02348
359.052	1.33366
359.265	1.06892
359.478	3.64314
359.69	-0.42325
359.903	2.77802
360.116	3.01602
360.328	0.3881
360.541	3.11016
360.753	1.04478
360.966	1.5421
361.179	1.65025
361.391	1.50659
361.604	0.96155
361.816	1.50477
362.029	1.20488
362.241	1.12326
362.454	1.2331
362.666	1.19441
362.879	1.84698
363.091	1.63333
363.304	1.17072
363.516	1.91384
363.728	0.7275
363.941	2.49916
364.153	1.29299
364.366	-0.0767
364.578	1.05684
364.79	2.49822
365.003	1.73394
365.215	1.58389
365.427	2.50318
365.639	3.28421
365.852	2.42388
366.064	4.10435
366.276	1.33255
366.488	2.52655
366.701	1.53072
366.913	2.0307
367.125	1.58942
367.337	1.76216
367.549	1.5063
367.762	1.96139
367.974	2.21701
368.186	1.327
368.398	2.97751
368.61	2.64914
368.822	2.70472
369.034	2.14254
369.246	2.77784
369.458	4.15305
369.67	1.17966
369.882	4.068
370.094	0.20349
370.306	3.80612
370.518	1.74464
370.73	0.99283
370.942	1.29661
371.154	1.75189
371.366	1.20972
371.578	2.12708
371.79	0.90272
372.002	3.12958
372.214	3.57067
372.425	2.17665
372.637	3.1036
372.849	1.97655
373.061	-0.172
373.273	2.12668
373.484	2.59316
373.696	2.72675
373.908	-0.06475
374.12	3.02654
374.331	2.56203
374.543	1.24234
374.755	0.97346
374.967	2.25054
375.178	2.56848
375.39	1.9039
375.602	2.17012
375.813	0.83104
376.025	0.6946
376.236	1.83628
376.448	1.96656
376.66	1.21209
376.871	1.36656
377.083	2.93642
377.294	2.83734
377.506	1.42883
377.717	3.01128
377.929	2.03067
378.14	1.00533
378.352	2.39706
378.563	2.1945
378.775	3.04612
378.986	1.25128
379.197	1.46869
379.409	1.4165
379.62	2.64787
379.832	2.19752
380.043	1.48809
380.254	1.90759
380.466	0.67596
380.677	4.67216
380.888	4.04765
381.1	4.2094
381.311	3.87216
381.522	1.80447
381.733	4.71659
381.945	1.5645
382.156	2.11347
382.367	1.3834
382.578	4.49135
382.789	4.41563
383.001	1.65802
383.212	2.82824
383.423	3.26618
383.634	2.91538
383.845	2.15375
384.056	1.39184
384.267	1.70242
384.478	1.6581
384.69	0.66559
384.901	2.46744
385.112	2.1227
385.323	3.05167
385.534	2.29165
385.745	2.09028
385.956	2.16889
386.167	0.78041
386.378	2.14211
386.588	0.66808
386.799	1.05099
387.01	0.18177
387.221	2.596
387.432	1.47531
387.643	3.64849
387.854	1.59109
388.065	1.31801
388.275	1.46975
388.486	1.28275
388.697	1.70227
388.908	1.53613
389.119	2.86295
389.329	3.43098
389.54	1.76543
389.751	2.23501
389.962	2.78093
390.172	2.07575
390.383	1.36409
390.594	1.34165
390.804	1.1282
391.015	1.25225
391.226	1.90012
391.436	2.30016
391.647	2.12304
391.858	2.29179
392.068	0.4085
392.279	0.64135
392.489	1.80289
392.7	2.88019
392.91	0.88168
393.121	1.22168
393.331	2.36797
393.542	2.97591
393.752	2.29678
393.963	1.98803
394.173	1.91635
394.384	2.35794
394.594	1.74135
394.804	0.93092
395.015	1.87724
395.225	2.4221
395.436	0.98657
395.646	2.5488
395.856	1.27672
396.067	0.77666
396.277	2.8125
396.487	2.37091
396.697	2.14875
396.908	2.70561
397.118	2.76874
397.328	2.2086
397.538	2.82486
397.749	1.4052
397.959	2.76843
398.169	2.81904
398.379	0.82905
398.589	2.67376
398.8	2.31367
399.01	2.23857
399.22	1.85472
399.43	4.28272
399.64	1.86643
399.85	2.85443
400.06	2.20128
400.27	1.73836
400.48	2.29387
400.69	3.46203
400.9	2.16003
401.11	1.58764
401.32	3.20113
401.53	1.90309
401.74	3.62446
401.95	3.08398
402.16	1.89679
402.37	2.90355
402.58	1.9447
402.79	3.00988
403	3.16279
403.209	1.92838
403.419	3.37482
403.629	2.18781
403.839	3.38285
404.049	3.52054
404.258	2.10086
404.468	2.11872
404.678	3.45783
404.888	3.66591
405.097	2.1924
405.307	2.64535
405.517	3.27725
405.727	3.19151
405.936	2.32572
406.146	3.32732
406.356	4.05625
406.565	2.83735
406.775	2.459
406.984	2.48775
407.194	4.7507
407.404	2.98335
407.613	3.29872
407.823	3.73978
408.032	4.10233
408.242	4.1249
408.451	2.68405
408.661	2.96969
408.87	4.74272
409.08	2.7626
409.289	3.62655
409.499	3.45305
409.708	3.35449
409.918	1.51679
410.127	3.51488
410.336	4.69082
410.546	4.18502
410.755	3.01544
410.964	2.92066
411.174	2.39715
411.383	3.72088
411.592	3.80343
411.802	2.58533
412.011	4.1631
412.22	3.4423
412.429	4.56079
412.639	4.8601
412.848	4.62648
413.057	4.98966
413.266	4.69148
413.475	3.67673
413.685	4.34744
413.894	4.46627
414.103	4.76421
414.312	4.59744
414.521	3.62352
414.73	4.21669
414.939	5.69164
415.148	4.24279
415.357	4.26164
415.566	4.00586
415.776	3.9407
415.985	3.68357
416.194	4.84085
416.403	5.69345
416.611	2.98598
416.82	3.78905
417.029	4.49867
417.238	3.62476
417.447	3.64045
417.656	4.11902
417.865	3.76979
418.074	4.21172
418.283	4.35942
418.492	5.27358
418.7	5.06925
418.909	5.93062
419.118	4.81681
419.327	5.11145
419.536	4.89228
419.744	4.52763
419.953	5.94403
420.162	5.85158
420.371	4.96911
420.579	5.25012
420.788	6.15889
420.997	6.40435
421.205	6.25172
421.414	6.08075
421.623	6.38934
421.831	5.70562
422.04	6.54575
422.249	5.59896
422.457	6.05573
422.666	5.40276
422.874	6.28096
423.083	6.46338
423.291	6.39938
423.5	6.2363
423.708	6.4431
423.917	7.0753
424.125	6.42176
424.334	6.1938
424.542	8.10642
424.751	7.27644
424.959	6.94514
425.167	7.37076
425.376	7.1632
425.584	6.18032
425.793	6.31409
426.001	5.21777
426.209	6.37641
426.418	5.21988
426.626	5.2898
