Data from WindowProjectSample_Transmission__17__00017.txt Node

Date: Sat May 03 15:12:16 EDT 2025
User: jessi
Spectrometer: SR400872
Trigger mode: 0
Integration Time (sec): 5.000010E-1
Scans to average: 6
Electric dark correction enabled: true
Nonlinearity correction enabled: true
Boxcar width: 0
XAxis mode: Wavelengths
Number of Pixels in Spectrum: 3648
>>>>>Begin Spectral Data<<<<<
184.909	18069.37328
185.132	2644.7062
185.355	23350.80784
185.578	-7922.91265
185.801	140.87311
186.024	-1499.88406
186.247	886.99728
186.47	1696.35935
186.693	-29.0083
186.916	-2558.52922
187.139	-2686.98435
187.362	1364.1763
187.585	2950.63665
187.808	-3458.50499
188.031	-27.39203
188.254	-1228.72507
188.476	-667.83897
188.699	2380.4911
188.922	-826.47368
189.145	-9714.84618
189.368	-354.55191
189.591	-1193.42309
189.813	-1707.76227
190.036	1296.92324
190.259	1749.80569
190.482	509.7077
190.705	10518.3055
190.927	-1051.74485
191.15	3516.21575
191.373	2106.4408
191.595	-2104.97071
191.818	2594.65511
192.041	-305.76526
192.263	2741.49829
192.486	2101.10107
192.709	-5313.70739
192.931	2923.0712
193.154	-5954.22536
193.377	194646.28549
193.599	1416.97475
193.822	1408.89391
194.044	-2244.55887
194.267	504.85919
194.489	-318.37621
194.712	1385.02994
194.934	3401.6076
195.157	-16831.43625
195.379	748.81874
195.602	2442.67218
195.824	2051.69981
196.047	2295.82104
196.269	2889.7358
196.492	3249.86697
196.714	2728.33147
196.936	1171.53187
197.159	1453.15929
197.381	-1958.02212
197.604	-794.84019
197.826	6534.66608
198.048	3188.18577
198.271	4076.69295
198.493	2146.95307
198.715	-5861.19272
198.938	-722.53055
199.16	1871.81782
199.382	1439.43365
199.604	-630.97798
199.827	9373.54064
200.049	957.65713
200.271	-3149.55881
200.493	-53043.31778
200.715	2287.26925
200.938	6708.53264
201.16	-6840.85751
201.382	-3104.15989
201.604	-2063.85248
201.826	6680.44688
202.048	902.37096
202.27	-17041.43315
202.492	4722.50111
202.715	-1120.95912
202.937	4714.17684
203.159	-2260.58802
203.381	820.9718
203.603	-3899.73151
203.825	-2533.1611
204.047	3466.73687
204.269	-2117.19638
204.491	2012.98582
204.713	1923.47635
204.935	15249.52277
205.156	1780.07426
205.378	-8293.90719
205.6	-4420.54182
205.822	9019.22463
206.044	-643.26284
206.266	4026.74723
206.488	1064.48294
206.71	27251.34162
206.932	2623.34148
207.153	-5033.62123
207.375	-1912.30995
207.597	8475.61861
207.819	4136.0654
208.041	2125.56703
208.262	-2928.02948
208.484	-1289.2313
208.706	-2485.81245
208.927	24931.72509
209.149	944.96575
209.371	-6145.85005
209.593	1049.59873
209.814	5465.19196
210.036	-3022.94235
210.258	-4731.21223
210.479	-1356.15446
210.701	952.17226
210.922	6857.497
211.144	-1013.83646
211.366	-6177.84862
211.587	-521.62076
211.809	9696.59482
212.03	-1232.88062
212.252	-1553.95512
212.473	819.44402
212.695	-2518.41165
212.916	3001.78604
213.138	4070.7566
213.359	-1874.24531
213.581	5918.70985
213.802	-1314.72477
214.024	16163.41343
214.245	-3392.07382
214.466	-610.22588
214.688	1656.26061
214.909	985.35707
215.131	-90414.86857
215.352	1666.01142
215.573	2435.10174
215.795	2986.08516
216.016	4010.51519
216.237	-529.12484
216.459	6852.80804
216.68	104605.66851
216.901	-83077.78887
217.122	1728.57339
217.344	5846.41243
217.565	-56982.99962
217.786	1499.91131
218.007	1893.07979
218.228	-1132.34396
218.45	-1202.4594
218.671	-1136.19265
218.892	1126.88425
219.113	-20155.54702
219.334	-310.35369
219.555	-4647.2305
219.776	1471.28812
219.997	3489.57327
220.219	1037.22669
220.44	2266.92215
220.661	-3021.33934
220.882	3506.6694
221.103	-1345.59242
221.324	957.84083
221.545	2399.05114
221.766	-6175.2652
221.987	4178.16575
222.208	-1729.26753
222.429	3647.16318
222.65	-145.39825
222.87	-558.00355
223.091	8043.62771
223.312	2905.13763
223.533	6751.19989
223.754	1884.39772
223.975	1553.38747
224.196	-10571.71854
224.417	1050.40346
224.637	865.02448
224.858	-667.9636
225.079	6619.36005
225.3	593.8583
225.521	2113.03411
225.741	1536.01454
225.962	732.59472
226.183	264.25773
226.404	644.91541
226.624	605.94575
226.845	334.51506
227.066	432.06257
227.286	185.25291
227.507	90.847
227.728	66.28008
227.948	131.21846
228.169	40.87985
228.389	44.98828
228.61	23.75571
228.831	36.80768
229.051	3.83001
229.272	21.97828
229.492	29.75351
229.713	9.27351
229.933	23.86038
230.154	18.96097
230.374	30.83538
230.595	24.73694
230.815	16.09186
231.036	23.31901
231.256	-6.26789
231.477	41.41104
231.697	23.54295
231.917	24.5476
232.138	39.31182
232.358	71.72497
232.579	64.69201
232.799	10.19624
233.019	65.69181
233.24	73.16325
233.46	29.26318
233.68	42.19334
233.901	31.51472
234.121	15.71604
234.341	6.53478
234.561	-1.12184
234.782	16.00493
235.002	44.38744
235.222	-0.56693
235.442	39.18688
235.662	20.22654
235.883	42.87675
236.103	36.6015
236.323	23.03686
236.543	17.85596
236.763	31.20313
236.983	28.76041
237.203	30.71146
237.423	43.88959
237.643	61.96061
237.864	53.93438
238.084	12.89784
238.304	20.51322
238.524	30.81993
238.744	31.63217
238.964	46.60361
239.184	42.38632
239.404	44.43725
239.624	24.82298
239.843	40.92012
240.063	22.95041
240.283	15.19912
240.503	18.04806
240.723	16.44934
240.943	10.1337
241.163	14.39402
241.383	10.40552
241.603	5.40407
241.822	5.8055
242.042	5.1844
242.262	5.9252
242.482	6.68452
242.702	8.60843
242.921	2.57614
243.141	6.12862
243.361	4.91744
243.581	6.92155
243.8	5.87941
244.02	4.05511
244.24	7.56987
244.459	6.84756
244.679	14.1589
244.899	9.02226
245.118	11.5246
245.338	9.43693
245.558	10.68517
245.777	6.01415
245.997	7.61979
246.216	7.72665
246.436	4.32931
246.655	3.28732
246.875	2.59686
247.094	5.08114
247.314	1.59138
247.533	2.61959
247.753	3.52052
247.972	2.77205
248.192	1.01953
248.411	1.82476
248.631	3.21321
248.85	4.20234
249.07	2.62809
249.289	5.12871
249.508	3.58745
249.728	6.27522
249.947	6.57012
250.166	7.16034
250.386	4.26198
250.605	5.31452
250.824	8.03766
251.044	6.48117
251.263	20.6666
251.482	11.12901
251.701	9.18151
251.921	0.0401
252.14	3.38444
252.359	3.88304
252.578	8.19768
252.798	3.03009
253.017	7.55978
253.236	4.42459
253.455	4.8858
253.674	9.48644
253.893	4.5564
254.112	6.27408
254.331	8.89828
254.551	7.83448
254.77	3.69835
254.989	11.24868
255.208	10.4581
255.427	12.89763
255.646	9.93736
255.865	17.55318
256.084	6.80025
256.303	8.37358
256.522	11.34901
256.741	2.02951
256.96	2.73003
257.179	7.16559
257.397	8.84457
257.616	4.90622
257.835	5.21561
258.054	11.73971
258.273	7.50314
258.492	8.87302
258.711	5.51811
258.93	2.50768
259.148	3.1794
259.367	3.64414
259.586	4.24274
259.805	2.00132
260.023	4.26429
260.242	3.33483
260.461	2.25195
260.68	1.35677
260.898	3.68754
261.117	1.24477
261.336	0.9153
261.554	3.20326
261.773	3.11001
261.992	0.67602
262.21	3.11052
262.429	3.79278
262.648	6.27374
262.866	7.21148
263.085	4.88797
263.303	3.75487
263.522	7.74423
263.74	7.47383
263.959	12.32853
264.178	6.23369
264.396	6.10338
264.615	4.26943
264.833	9.77565
265.051	8.65629
265.27	8.3308
265.488	9.0183
265.707	5.56207
265.925	9.27825
266.144	3.86747
266.362	5.27106
266.58	5.17035
266.799	4.19874
267.017	4.8141
267.235	4.37003
267.454	2.7811
267.672	1.71178
267.89	3.37702
268.109	4.15084
268.327	3.4967
268.545	1.04708
268.763	3.62827
268.982	1.41496
269.2	4.48392
269.418	2.43354
269.636	2.06573
269.854	3.72653
270.073	2.92501
270.291	1.29212
270.509	1.41511
270.727	3.74802
270.945	6.0287
271.163	6.14576
271.381	1.46319
271.599	2.37197
271.817	4.51896
272.036	1.41681
272.254	2.73779
272.472	2.24233
272.69	2.06664
272.908	1.97708
273.126	3.64374
273.344	4.79843
273.562	1.74939
273.779	2.44496
273.997	3.31192
274.215	3.90707
274.433	2.56955
274.651	3.94374
274.869	4.07054
275.087	2.50061
275.305	3.7754
275.523	1.9622
275.74	2.81403
275.958	4.77022
276.176	7.07102
276.394	2.20997
276.612	2.78647
276.829	2.70799
277.047	2.21559
277.265	2.65762
277.483	3.31667
277.7	3.60606
277.918	2.981
278.136	5.60355
278.353	2.72241
278.571	1.28178
278.789	4.72693
279.006	0.76635
279.224	2.54066
279.442	4.28839
279.659	2.84349
279.877	2.27211
280.094	4.82366
280.312	1.17447
280.529	3.03572
280.747	0.82044
280.964	2.18155
281.182	5.23247
281.399	2.29499
281.617	3.28656
281.834	2.24522
282.052	1.87367
282.269	2.60613
282.487	2.35862
282.704	1.76806
282.921	2.18083
283.139	2.89293
283.356	3.79337
283.574	3.07151
283.791	1.86203
284.008	4.65178
284.226	2.51854
284.443	2.6399
284.66	3.56312
284.877	2.78751
285.095	1.93605
285.312	1.45112
285.529	0.98007
285.746	0.68388
285.964	1.84079
286.181	1.13131
286.398	1.73402
286.615	2.4941
286.832	2.28121
287.05	0.72983
287.267	1.6989
287.484	1.8897
287.701	2.51895
287.918	2.37843
288.135	2.51141
288.352	1.00376
288.569	1.29549
288.786	2.30372
289.003	1.63666
289.22	2.4382
289.437	1.42548
289.654	2.70686
289.871	2.69662
290.088	2.71394
290.305	2.14396
290.522	1.63727
290.739	2.07681
290.956	2.8841
291.173	3.4205
291.39	3.15823
291.607	2.12639
291.824	1.67752
292.04	1.07465
292.257	2.60868
292.474	2.942
292.691	1.79659
292.908	0.92593
293.125	1.36763
293.341	1.05473
293.558	4.58842
293.775	1.84909
293.992	1.91986
294.208	0.65863
294.425	1.25408
294.642	1.67995
294.858	2.43983
295.075	0.70216
295.292	1.81088
295.508	2.23337
295.725	3.51317
295.942	1.7351
296.158	1.5002
296.375	2.27035
296.591	1.74944
296.808	2.34599
297.024	2.7855
297.241	2.87373
297.458	3.29435
297.674	1.52916
297.891	3.06167
298.107	3.1529
298.323	2.44468
298.54	4.53534
298.756	3.02341
298.973	2.54619
299.189	4.96355
299.406	3.81883
299.622	4.97442
299.838	5.21152
300.055	5.05105
300.271	3.77466
300.487	3.61465
300.704	4.50981
300.92	4.17736
301.136	7.4061
301.353	6.14862
301.569	5.52466
301.785	5.74969
302.001	6.33957
302.218	6.12154
302.434	6.4109
302.65	5.08529
302.866	5.72444
303.083	8.12967
303.299	8.61602
303.515	6.42769
303.731	7.40283
303.947	5.77813
304.163	6.46996
304.379	7.12431
304.595	7.28693
304.812	6.36449
305.028	6.70166
305.244	6.66934
305.46	7.63229
305.676	8.23092
305.892	8.73778
306.108	8.18031
306.324	7.15217
306.54	9.22677
306.756	7.78479
306.972	7.75523
307.187	7.855
307.403	8.40785
307.619	7.03929
307.835	8.18304
308.051	8.81864
308.267	6.72556
308.483	9.40231
308.699	8.29156
308.914	8.47019
309.13	8.13538
309.346	7.37597
309.562	7.57984
309.778	7.50082
309.993	8.9322
310.209	9.28377
310.425	7.68155
310.641	9.00873
310.856	8.31189
311.072	8.39598
311.288	8.98302
311.503	9.84469
311.719	7.83815
311.935	8.07455
312.15	10.12481
312.366	9.88769
312.581	10.10869
312.797	9.6539
313.013	10.05286
313.228	9.00869
313.444	8.95085
313.659	8.44408
313.875	9.48263
314.09	8.98444
314.306	10.05137
314.521	9.74954
314.737	9.6994
314.952	9.29595
315.168	9.32008
315.383	9.72495
315.599	8.53921
315.814	9.16369
316.029	9.97783
316.245	8.63418
316.46	7.74468
316.675	10.1961
316.891	10.91547
317.106	12.01176
317.321	9.39658
317.537	10.10587
317.752	10.29438
317.967	10.16194
318.183	8.6782
318.398	9.02433
318.613	10.28929
318.828	10.70005
319.043	10.00441
319.259	9.23318
319.474	9.6122
319.689	10.63633
319.904	8.3379
320.119	11.20103
320.334	9.80623
320.549	9.88314
320.765	10.69743
320.98	10.49925
321.195	9.84333
321.41	10.03858
321.625	10.45203
321.84	11.3476
322.055	10.96264
322.27	9.79299
322.485	8.81843
322.7	10.54739
322.915	10.92945
323.13	10.24764
323.345	12.07009
323.56	11.70441
323.775	11.3937
323.989	11.54666
324.204	10.9975
324.419	12.07384
324.634	9.81613
324.849	11.1976
325.064	13.42229
325.279	12.34161
325.493	11.62486
325.708	12.1609
325.923	10.65338
326.138	11.57167
326.352	12.86658
326.567	12.4199
326.782	11.17677
326.997	11.34939
327.211	12.0863
327.426	11.67082
327.641	11.68109
327.855	10.72184
328.07	12.39984
328.285	13.70787
328.499	11.20871
328.714	12.27677
328.928	11.96245
329.143	12.03724
329.358	12.83042
329.572	13.10892
329.787	13.65119
330.001	14.40384
330.216	10.74988
330.43	14.61212
330.645	13.20707
330.859	13.16781
331.074	11.08119
331.288	12.47062
331.503	14.20312
331.717	11.43731
331.931	12.78285
332.146	13.30087
332.36	14.53511
332.575	13.03723
332.789	13.11237
333.003	13.35125
333.218	13.81621
333.432	12.98433
333.646	14.30504
333.86	15.38956
334.075	14.93556
334.289	12.78019
334.503	11.89571
334.717	14.17185
334.932	12.9451
335.146	13.12457
335.36	11.69712
335.574	13.3411
335.788	13.20857
336.003	13.99857
336.217	14.74949
336.431	14.30414
336.645	13.85372
336.859	13.81695
337.073	14.90256
337.287	15.06875
337.501	13.38107
337.715	15.59868
337.929	15.11856
338.143	14.18154
338.357	14.73203
338.571	14.42145
338.785	15.86113
338.999	14.10715
339.213	14.28555
339.427	13.96614
339.641	15.71941
339.855	14.68279
340.069	14.08399
340.283	15.87979
340.497	16.11611
340.711	15.49168
340.924	15.31083
341.138	14.55798
341.352	14.34703
341.566	15.72951
341.78	14.6584
341.993	14.965
342.207	15.05594
342.421	16.40663
342.635	15.81382
342.848	15.8304
343.062	13.57045
343.276	15.5043
343.49	17.51173
343.703	15.49475
343.917	16.86528
344.131	17.425
344.344	15.22888
344.558	16.01996
344.771	15.28804
344.985	17.59601
345.199	18.05013
345.412	16.85599
345.626	17.1391
345.839	15.25979
346.053	15.60677
346.266	15.9111
346.48	17.18265
346.693	17.35731
346.907	17.14353
347.12	16.07562
347.334	16.89695
347.547	17.40013
347.76	16.79599
347.974	17.8277
348.187	16.9836
348.401	16.8629
348.614	16.12786
348.827	17.10605
349.041	17.454
349.254	15.67685
349.467	16.59891
349.681	16.70702
349.894	16.42708
350.107	18.59236
350.32	19.42301
350.534	16.39943
350.747	17.21871
350.96	16.95161
351.173	17.03301
351.386	17.45559
351.6	16.9934
351.813	17.88364
352.026	17.65961
352.239	17.36438
352.452	17.05296
352.665	18.82272
352.878	17.58115
353.092	19.90155
353.305	18.69111
353.518	18.44792
353.731	17.02135
353.944	19.10314
354.157	18.02523
354.37	18.31483
354.583	17.03868
354.796	17.67602
355.009	19.41169
355.222	19.04063
355.435	18.67283
355.647	19.94104
355.86	18.16294
356.073	19.11048
356.286	18.31741
356.499	19.52453
356.712	19.76376
356.925	19.44034
357.138	19.71257
357.35	18.64974
357.563	18.85097
357.776	19.42481
357.989	19.478
358.201	19.90739
358.414	19.86117
358.627	20.4301
358.84	19.31609
359.052	18.69349
359.265	18.98273
359.478	20.12366
359.69	17.59405
359.903	20.33173
360.116	20.333
360.328	18.48794
360.541	20.23552
360.753	19.55528
360.966	19.60838
361.179	20.0211
361.391	19.89864
361.604	19.60266
361.816	19.96813
362.029	20.20911
362.241	19.96154
362.454	20.37243
362.666	19.85032
362.879	20.95075
363.091	20.21137
363.304	20.28527
363.516	20.30978
363.728	19.91427
363.941	20.59851
364.153	20.8942
364.366	19.06594
364.578	19.69903
364.79	21.00977
365.003	21.11137
365.215	20.47513
365.427	20.9828
365.639	21.4036
365.852	20.48606
366.064	21.7991
366.276	20.68484
366.488	20.88987
366.701	20.50662
366.913	20.53743
367.125	20.66003
367.337	20.33644
367.549	20.76936
367.762	20.71306
367.974	20.65405
368.186	20.82219
368.398	21.72505
368.61	21.15815
368.822	21.14275
369.034	20.53548
369.246	21.52379
369.458	23.04886
369.67	20.67441
369.882	22.01819
370.094	19.34661
370.306	21.78289
370.518	20.78943
370.73	20.62466
370.942	21.07678
371.154	21.63466
371.366	21.41253
371.578	21.78611
371.79	21.46768
372.002	22.24508
372.214	23.18601
372.425	21.16357
372.637	22.939
372.849	22.10807
373.061	20.01558
373.273	21.62251
373.484	22.16544
373.696	22.12188
373.908	20.05417
374.12	22.10808
374.331	22.32733
374.543	20.60172
374.755	21.01372
374.967	21.63788
375.178	22.85533
375.39	21.63916
375.602	21.82561
375.813	21.05619
376.025	21.36946
376.236	22.23506
376.448	22.09073
376.66	22.11182
376.871	22.31455
377.083	22.7093
377.294	23.67314
377.506	21.91849
377.717	23.35802
377.929	22.72071
378.14	22.1998
378.352	22.63694
378.563	23.14065
378.775	23.49629
378.986	21.8432
379.197	22.99841
379.409	21.75904
379.62	22.93466
379.832	22.80265
380.043	22.28702
380.254	23.1012
380.466	21.99637
380.677	24.7104
380.888	24.18301
381.1	24.952
381.311	24.82392
381.522	23.27436
381.733	25.03408
381.945	23.15166
382.156	22.29066
382.367	22.74083
382.578	25.23036
382.789	25.23565
383.001	22.3178
383.212	24.87312
383.423	24.4153
383.634	23.67359
383.845	24.00288
384.056	22.71064
384.267	23.20853
384.478	23.30975
384.69	22.26618
384.901	23.83998
385.112	23.45637
385.323	24.8045
385.534	23.71224
385.745	24.12886
385.956	23.91409
386.167	22.89884
386.378	24.22881
386.588	23.36014
386.799	22.71424
387.01	22.53426
387.221	24.47216
387.432	24.18826
387.643	25.10449
387.854	23.73474
388.065	23.24624
388.275	23.78473
388.486	23.36969
388.697	23.98903
388.908	23.56954
389.119	24.53622
389.329	24.75954
389.54	24.21055
389.751	24.359
389.962	24.71291
390.172	23.6551
390.383	23.89598
390.594	23.26886
390.804	23.30213
391.015	23.75036
391.226	24.42751
391.436	24.7956
391.647	24.49011
391.858	24.4991
392.068	22.95292
392.279	23.53433
392.489	24.44627
392.7	25.08872
392.91	23.84128
393.121	23.96062
393.331	24.79093
393.542	25.02826
393.752	25.01241
393.963	25.0933
394.173	24.89376
394.384	25.01634
394.594	24.5557
394.804	23.73564
395.015	24.4407
395.225	25.41837
395.436	24.03831
395.646	25.10041
395.856	24.39044
396.067	23.61627
396.277	25.36365
396.487	25.06291
396.697	25.10883
396.908	25.19551
397.118	25.02477
397.328	24.72516
397.538	25.3451
397.749	24.63028
397.959	25.22185
398.169	24.97018
398.379	24.01284
398.589	24.94477
398.8	25.15655
399.01	25.16836
399.22	25.09875
399.43	26.39378
399.64	25.12235
399.85	25.39502
400.06	25.21797
400.27	24.70967
400.48	24.9934
400.69	25.69771
400.9	24.99149
401.11	24.35554
401.32	25.52915
401.53	24.79952
401.74	25.83085
401.95	25.09933
402.16	24.82386
402.37	25.31008
402.58	24.95232
402.79	25.38678
403	25.63016
403.209	24.72086
403.419	25.69343
403.629	24.69548
403.839	25.94787
404.049	25.75526
404.258	25.27033
404.468	24.99765
404.678	25.90736
404.888	26.42434
405.097	25.46016
405.307	25.30404
405.517	25.9059
405.727	26.0668
405.936	25.32719
406.146	25.69544
406.356	26.54064
406.565	25.36829
406.775	25.30972
406.984	25.50258
407.194	27.09882
407.404	25.78595
407.613	26.3652
407.823	26.25834
408.032	26.69181
408.242	26.397
408.451	25.21746
408.661	25.46299
408.87	26.71512
409.08	25.03685
409.289	26.23931
409.499	25.97285
409.708	25.85014
409.918	24.59202
410.127	26.1578
410.336	27.06105
410.546	26.70992
410.755	25.38517
410.964	25.57428
411.174	25.58227
411.383	26.26948
411.592	26.31429
411.802	25.85361
412.011	26.33803
412.22	26.23397
412.429	27.20272
412.639	27.37115
412.848	26.74272
413.057	27.36137
413.266	26.61937
413.475	26.18744
413.685	26.64614
413.894	26.4774
414.103	26.88408
414.312	26.5625
414.521	25.79622
414.73	26.19319
414.939	27.44152
415.148	26.51717
415.357	26.55965
415.566	26.66468
415.776	25.96262
415.985	26.05373
416.194	26.89858
416.403	27.56629
416.611	25.5773
416.82	26.02293
417.029	26.71601
417.238	26.3771
417.447	26.10137
417.656	26.67285
417.865	26.83924
418.074	27.58341
418.283	29.24523
418.492	31.06358
418.7	30.8195
418.909	33.8454
419.118	32.45891
419.327	33.5416
419.536	33.57115
419.744	34.42624
419.953	36.95487
420.162	37.60108
420.371	37.71366
420.579	40.02423
420.788	40.93896
420.997	40.78649
421.205	42.3193
421.414	41.7204
421.623	42.04303
421.831	41.11417
422.04	41.64321
