Data from WindowProjectSample_Transmission__6__00006.txt Node

Date: Sat May 03 14:57:40 EDT 2025
User: jessi
Spectrometer: SR400872
Trigger mode: 0
Integration Time (sec): 5.000010E-1
Scans to average: 6
Electric dark correction enabled: true
Nonlinearity correction enabled: true
Boxcar width: 0
XAxis mode: Wavelengths
Number of Pixels in Spectrum: 3648
>>>>>Begin Spectral Data<<<<<
184.909	17544.72924
185.132	2614.63333
185.355	23504.43644
185.578	-7850.66863
185.801	382.41013
186.024	-1457.47136
186.247	670.85398
186.47	1934.68279
186.693	18.82107
186.916	-2436.074
187.139	-2613.58931
187.362	1775.30766
187.585	2619.52902
187.808	-3551.089
188.031	-978.48117
188.254	-1342.43487
188.476	-653.80101
188.699	2659.7993
188.922	-920.61128
189.145	-9914.7921
189.368	-345.4496
189.591	-1143.68073
189.813	-1780.91613
190.036	1158.53222
190.259	1884.3674
190.482	610.79354
190.705	10303.13845
190.927	-1047.91806
191.15	3507.14181
191.373	2339.78358
191.595	-2195.12114
191.818	2483.32008
192.041	-364.471
192.263	2719.95542
192.486	2174.54522
192.709	-5407.79151
192.931	2750.45269
193.154	-6268.62729
193.377	188638.5362
193.599	1381.23552
193.822	1589.2368
194.044	-2253.16601
194.267	439.53362
194.489	-279.71773
194.712	1361.08951
194.934	3281.85978
195.157	-15829.93635
195.379	852.13565
195.602	2167.65662
195.824	2044.44357
196.047	2217.49519
196.269	3046.61406
196.492	3671.7723
196.714	2728.505
196.936	1157.1863
197.159	1382.75238
197.381	-2293.2224
197.604	-1310.22247
197.826	6822.17155
198.048	2889.70591
198.271	4446.59212
198.493	2135.90978
198.715	-5850.08785
198.938	-491.90888
199.16	1615.47847
199.382	1482.03562
199.604	-761.77936
199.827	9190.02646
200.049	941.82219
200.271	-2890.34055
200.493	-51500.39045
200.715	2340.79294
200.938	6580.81497
201.16	-7534.86338
201.382	-3002.49422
201.604	-2063.44584
201.826	6735.29376
202.048	834.37698
202.27	-16306.78188
202.492	4704.50587
202.715	-1079.82685
202.937	4731.25277
203.159	-2282.86828
203.381	910.8099
203.603	-3997.2156
203.825	-2493.71297
204.047	3321.5693
204.269	-2253.02892
204.491	2336.44367
204.713	1885.02398
204.935	16035.72044
205.156	1779.51185
205.378	-8323.98084
205.6	-4022.58955
205.822	9278.21166
206.044	-719.02054
206.266	3928.22797
206.488	1049.75105
206.71	28313.04155
206.932	2134.22423
207.153	-4753.93378
207.375	-1931.69925
207.597	8481.26752
207.819	3998.96824
208.041	2247.84942
208.262	-2527.15314
208.484	-1199.44003
208.706	-3123.32051
208.927	27525.71442
209.149	965.49949
209.371	-6531.03795
209.593	1442.35904
209.814	4775.44726
210.036	-2657.22549
210.258	-5481.51935
210.479	-1325.136
210.701	1015.20359
210.922	6307.97867
211.144	-1172.15487
211.366	-6248.35743
211.587	-436.34564
211.809	9585.48409
212.03	-1170.4032
212.252	-1645.10156
212.473	797.76308
212.695	-2441.95979
212.916	2906.39084
213.138	4202.8448
213.359	-1921.80482
213.581	6395.08197
213.802	-1788.80336
214.024	16498.81276
214.245	-3598.76743
214.466	-711.42744
214.688	1692.6503
214.909	874.84198
215.131	-97555.89123
215.352	1590.30609
215.573	2505.29714
215.795	3054.59812
216.016	4005.01506
216.237	-562.18495
216.459	6337.13448
216.68	103994.32552
216.901	-86963.43747
217.122	1636.57203
217.344	6063.92968
217.565	-59024.91706
217.786	1551.78761
218.007	1817.24757
218.228	-1108.77618
218.45	-1159.63726
218.671	-1206.88371
218.892	1149.32964
219.113	-17758.91194
219.334	-314.80956
219.555	-5244.23008
219.776	1607.99683
219.997	3327.4802
220.219	1041.41644
220.44	2436.85611
220.661	-2485.0123
220.882	3334.7232
221.103	-1218.49468
221.324	994.64098
221.545	2269.64544
221.766	-5958.5671
221.987	3946.61661
222.208	-1775.30366
222.429	3449.2529
222.65	-234.01898
222.87	-519.84553
223.091	7826.20599
223.312	2612.05333
223.533	6333.55083
223.754	1846.8837
223.975	1475.73026
224.196	-10548.36575
224.417	1032.70705
224.637	1000.94411
224.858	-614.72717
225.079	7088.15132
225.3	572.90044
225.521	1988.35023
225.741	1393.58013
225.962	696.24424
226.183	279.19814
226.404	675.28874
226.624	601.06911
226.845	369.34634
227.066	414.94358
227.286	200.94385
227.507	100.38957
227.728	80.52926
227.948	123.52384
228.169	35.73544
228.389	43.96531
228.61	24.8452
228.831	35.37451
229.051	4.40746
229.272	22.07576
229.492	31.83595
229.713	9.51474
229.933	23.51437
230.154	18.35831
230.374	31.7145
230.595	23.28216
230.815	15.64772
231.036	21.10323
231.256	-3.96319
231.477	42.86227
231.697	24.05328
231.917	25.35326
232.138	35.80913
232.358	77.42555
232.579	63.08695
232.799	11.49896
233.019	63.83293
233.24	77.74887
233.46	24.04344
233.68	43.22137
233.901	31.4058
234.121	15.53998
234.341	8.17729
234.561	-3.0799
234.782	12.88708
235.002	45.57163
235.222	-1.58093
235.442	40.38759
235.662	20.1173
235.883	44.41568
236.103	36.12422
236.323	25.61064
236.543	21.45126
236.763	30.76431
236.983	28.41072
237.203	28.72052
237.423	42.59822
237.643	63.2794
237.864	52.57767
238.084	14.31176
238.304	24.64679
238.524	33.61086
238.744	27.7149
238.964	47.14918
239.184	42.79541
239.404	43.87347
239.624	24.45748
239.843	39.37654
240.063	23.50822
240.283	14.71399
240.503	17.34821
240.723	16.04873
240.943	9.79205
241.163	12.73607
241.383	10.40917
241.603	4.90031
241.822	6.97259
242.042	4.78086
242.262	5.68941
242.482	6.40569
242.702	7.99206
242.921	2.54392
243.141	5.45876
243.361	4.94221
243.581	6.74507
243.8	6.34841
244.02	3.62954
244.24	7.403
244.459	6.83844
244.679	14.44651
244.899	8.93681
245.118	10.36768
245.338	8.55445
245.558	10.21042
245.777	6.23402
245.997	7.84239
246.216	7.55183
246.436	3.92255
246.655	3.28514
246.875	2.39618
247.094	4.74996
247.314	1.80097
247.533	2.56506
247.753	3.56386
247.972	2.65931
248.192	0.97264
248.411	1.73623
248.631	3.08172
248.85	4.20451
249.07	2.86221
249.289	5.17225
249.508	3.72089
249.728	6.42155
249.947	6.55404
250.166	7.05022
250.386	4.34625
250.605	6.06524
250.824	7.44876
251.044	6.15299
251.263	20.59666
251.482	10.35987
251.701	9.38703
251.921	0.19469
252.14	3.62453
252.359	3.70026
252.578	8.45375
252.798	2.59887
253.017	7.31579
253.236	4.14142
253.455	5.00118
253.674	9.66855
253.893	4.63278
254.112	6.73515
254.331	8.83564
254.551	7.17645
254.77	4.54078
254.989	11.54763
255.208	9.81346
255.427	12.01676
255.646	10.39989
255.865	17.89714
256.084	7.01787
256.303	8.91235
256.522	10.95047
256.741	2.26606
256.96	2.17193
257.179	8.00095
257.397	8.855
257.616	4.41325
257.835	4.73882
258.054	11.86374
258.273	7.139
258.492	8.79823
258.711	5.22991
258.93	2.26925
259.148	3.37895
259.367	3.48769
259.586	4.3653
259.805	2.01021
260.023	4.12309
260.242	3.09737
260.461	2.01939
260.68	1.23285
260.898	3.7645
261.117	1.35135
261.336	0.94253
261.554	3.11251
261.773	3.02988
261.992	0.78161
262.21	2.94151
262.429	3.85139
262.648	6.3637
262.866	7.31865
263.085	4.98627
263.303	3.97163
263.522	7.55955
263.74	7.96122
263.959	12.7183
264.178	6.51559
264.396	5.68198
264.615	4.04961
264.833	9.68957
265.051	8.65109
265.27	8.46944
265.488	9.18693
265.707	5.43374
265.925	9.0309
266.144	3.90834
266.362	5.37811
266.58	5.2547
266.799	3.90793
267.017	5.10719
267.235	4.59206
267.454	2.50513
267.672	1.78319
267.89	3.91259
268.109	3.97908
268.327	3.6741
268.545	1.37612
268.763	3.37292
268.982	1.41402
269.2	4.70088
269.418	2.38013
269.636	1.75902
269.854	3.53928
270.073	3.22556
270.291	1.32849
270.509	1.79402
270.727	3.70658
270.945	6.00773
271.163	6.02435
271.381	1.41411
271.599	2.65134
271.817	4.35141
272.036	1.65727
272.254	2.73157
272.472	2.21473
272.69	2.1495
272.908	2.03259
273.126	3.98844
273.344	4.80322
273.562	1.91574
273.779	2.4175
273.997	3.4019
274.215	3.85678
274.433	2.72714
274.651	4.09204
274.869	4.09785
275.087	2.46116
275.305	3.75742
275.523	2.0034
275.74	3.01902
275.958	4.87771
276.176	7.09439
276.394	2.3037
276.612	2.96011
276.829	2.64958
277.047	2.29663
277.265	2.62942
277.483	3.39374
277.7	3.80298
277.918	3.1498
278.136	5.43511
278.353	2.78795
278.571	1.41387
278.789	3.89903
279.006	1.11173
279.224	2.65178
279.442	4.30473
279.659	2.79066
279.877	2.37011
280.094	4.71045
280.312	0.94739
280.529	2.94249
280.747	0.77973
280.964	2.38526
281.182	5.22525
281.399	2.31564
281.617	3.46118
281.834	2.47198
282.052	1.96902
282.269	2.64824
282.487	2.43106
282.704	1.83698
282.921	2.09198
283.139	2.85403
283.356	3.686
283.574	3.17514
283.791	1.77507
284.008	4.62378
284.226	2.29228
284.443	2.77755
284.66	3.64045
284.877	2.80046
285.095	2.01802
285.312	1.26954
285.529	1.0087
285.746	0.87735
285.964	1.84639
286.181	1.09005
286.398	1.81131
286.615	2.28337
286.832	2.3947
287.05	0.8638
287.267	1.57566
287.484	1.8314
287.701	2.45581
287.918	2.35568
288.135	2.4625
288.352	1.06932
288.569	1.35822
288.786	2.28493
289.003	1.5368
289.22	2.43219
289.437	1.68961
289.654	2.50357
289.871	2.89117
290.088	2.74761
290.305	2.15249
290.522	1.66388
290.739	1.82807
290.956	2.93932
291.173	3.40224
291.39	3.19091
291.607	2.27165
291.824	1.7497
292.04	1.08005
292.257	2.73046
292.474	2.80429
292.691	1.70168
292.908	1.14851
293.125	1.74701
293.341	0.89685
293.558	4.65103
293.775	1.88246
293.992	1.91814
294.208	0.70339
294.425	1.09285
294.642	1.65788
294.858	2.67101
295.075	0.60437
295.292	1.84557
295.508	2.14332
295.725	3.57546
295.942	1.64132
296.158	1.05024
296.375	1.85077
296.591	1.44829
296.808	1.52891
297.024	1.79078
297.241	2.00704
297.458	2.13081
297.674	0.26246
297.891	1.73771
298.107	1.24888
298.323	0.99873
298.54	2.5168
298.756	1.05686
298.973	0.56149
299.189	2.62783
299.406	1.08205
299.622	2.61771
299.838	2.57525
300.055	2.5192
300.271	0.73812
300.487	0.90533
300.704	1.20328
300.92	0.63826
301.136	3.50621
301.353	2.42905
301.569	1.91215
301.785	2.11834
302.001	2.40041
302.218	2.28267
302.434	2.24944
302.65	0.64213
302.866	1.49445
303.083	3.53333
303.299	3.23707
303.515	1.84186
303.731	2.00233
303.947	0.74287
304.163	0.97222
304.379	1.85933
304.595	2.15821
304.812	1.25614
305.028	1.11848
305.244	1.49133
305.46	2.68091
305.676	2.66868
305.892	2.87924
306.108	1.80573
306.324	1.45747
306.54	3.51669
306.756	2.48885
306.972	2.54168
307.187	1.53707
307.403	3.10678
307.619	1.28192
307.835	2.64784
308.051	2.99541
308.267	0.65757
308.483	2.63459
308.699	2.33198
308.914	1.9782
309.13	1.73845
309.346	0.3679
309.562	0.93017
309.778	0.51471
309.993	2.20576
310.209	1.62081
310.425	0.70793
310.641	1.58735
310.856	0.92264
311.072	0.83683
311.288	1.6533
311.503	1.75691
311.719	0.44645
311.935	0.31143
312.15	2.06356
312.366	1.82609
312.581	2.38343
312.797	1.74633
313.013	2.40067
313.228	1.46284
313.444	1.91229
313.659	1.38583
313.875	2.06749
314.09	1.85681
314.306	2.86318
314.521	2.5097
314.737	2.3856
314.952	2.08898
315.168	1.70264
315.383	2.49059
315.599	1.57108
315.814	1.6067
316.029	2.51458
316.245	0.68927
316.46	0.7581
316.675	2.98135
316.891	3.62241
317.106	4.12052
317.321	2.40883
317.537	2.27969
317.752	2.44257
317.967	2.40416
318.183	1.17316
318.398	1.57446
318.613	2.72673
318.828	2.86144
319.043	2.49304
319.259	1.48925
319.474	2.26799
319.689	2.80623
319.904	0.53374
320.119	2.53237
320.334	2.1612
320.549	1.75896
320.765	2.77904
320.98	2.1135
321.195	2.77851
321.41	1.57069
321.625	2.53556
321.84	3.25771
322.055	3.58142
322.27	1.1362
322.485	0.95473
322.7	2.09451
322.915	2.97466
323.13	1.07306
323.345	3.27078
323.56	2.58228
323.775	2.55298
323.989	2.41194
324.204	2.09589
324.419	2.51246
324.634	0.97045
324.849	1.72438
325.064	4.14855
325.279	2.91061
325.493	2.54995
325.708	2.72812
325.923	1.27438
326.138	1.30944
326.352	3.27698
326.567	2.64535
326.782	1.47189
326.997	1.20737
327.211	2.42626
327.426	2.37654
327.641	1.62643
327.855	0.46289
328.07	2.39385
328.285	3.33873
328.499	1.66663
328.714	2.33326
328.928	2.73935
329.143	2.14763
329.358	2.82905
329.572	2.74403
329.787	3.12555
330.001	4.08405
330.216	0.65275
330.43	3.63512
330.645	3.55505
330.859	2.6456
331.074	1.34784
331.288	2.14797
331.503	3.14135
331.717	1.03158
331.931	1.94239
332.146	1.96428
332.36	3.42241
332.575	2.39764
332.789	2.21044
333.003	1.75935
333.218	2.36584
333.432	1.73888
333.646	2.46647
333.86	3.07359
334.075	3.58383
334.289	1.89829
334.503	1.48157
334.717	2.41622
334.932	2.19406
335.146	3.31387
335.36	1.72922
335.574	2.43975
335.788	2.32029
336.003	2.96002
336.217	2.5116
336.431	2.69194
336.645	1.56294
336.859	1.07583
337.073	1.80594
337.287	2.24885
337.501	1.1943
337.715	2.1543
337.929	2.63271
338.143	1.04998
338.357	1.91099
338.571	1.16677
338.785	2.39706
338.999	1.40197
339.213	1.71353
339.427	0.7547
339.641	3.02146
339.855	1.70101
340.069	1.69109
340.283	2.83487
340.497	3.5021
340.711	2.16277
340.924	1.55319
341.138	0.9313
341.352	0.76155
341.566	2.16866
341.78	0.63908
341.993	1.49292
342.207	1.02682
342.421	2.2168
342.635	2.06136
342.848	1.40552
343.062	0.23566
343.276	1.45763
343.49	3.92469
343.703	1.48686
343.917	2.52213
344.131	2.72259
344.344	1.24489
344.558	1.50025
344.771	1.15635
344.985	3.05906
345.199	3.05767
345.412	2.06179
345.626	2.05237
345.839	0.5942
346.053	0.86187
346.266	1.00247
346.48	2.60735
346.693	2.14867
346.907	2.40809
347.12	1.27271
347.334	2.24136
347.547	2.09741
347.76	1.74517
347.974	2.85172
348.187	2.11363
348.401	1.7118
348.614	1.57572
348.827	1.73871
349.041	2.51085
349.254	0.61677
349.467	1.57338
349.681	0.72686
349.894	1.39349
350.107	2.96979
350.32	3.31223
350.534	0.48477
350.747	1.45647
350.96	1.2151
351.173	1.30526
351.386	1.51561
351.6	1.47134
351.813	1.19889
352.026	1.90166
352.239	0.83936
352.452	1.14066
352.665	2.39616
352.878	1.48385
353.092	3.47492
353.305	2.25193
353.518	2.11324
353.731	1.21027
353.944	2.91902
354.157	1.17268
354.37	1.03454
354.583	0.87582
354.796	0.56951
355.009	2.59319
355.222	1.86982
355.435	1.76161
355.647	2.59974
355.86	0.88649
356.073	1.5586
356.286	1.31267
356.499	2.27175
356.712	2.02217
356.925	2.08472
357.138	2.51841
357.35	0.91841
357.563	1.40249
357.776	1.70947
357.989	1.25579
358.201	2.20911
358.414	1.57666
358.627	2.65729
358.84	1.46233
359.052	0.93761
359.265	0.83396
359.478	2.49205
359.69	-0.3008
359.903	1.91318
360.116	2.22209
360.328	0.50218
360.541	2.28432
360.753	0.81427
360.966	1.06171
361.179	1.18836
361.391	1.07525
361.604	0.74898
361.816	1.00691
362.029	0.9913
362.241	0.85562
362.454	1.00747
362.666	0.76689
362.879	1.41528
363.091	1.31597
363.304	0.78388
363.516	1.42917
363.728	0.63465
363.941	1.81512
364.153	0.94039
364.366	-0.07093
364.578	0.77322
364.79	1.73196
365.003	1.26327
365.215	1.27385
365.427	1.83612
365.639	2.39375
365.852	1.72793
366.064	3.06734
366.276	1.10951
366.488	1.93944
366.701	1.1562
366.913	1.391
367.125	1.36249
367.337	1.0804
367.549	1.06943
367.762	1.57892
367.974	1.58139
368.186	0.82198
368.398	2.20548
368.61	1.93764
368.822	1.89648
369.034	1.55414
369.246	2.00534
369.458	3.33283
369.67	0.89566
369.882	2.79352
370.094	0.12302
370.306	2.81219
370.518	1.26168
370.73	0.7386
370.942	0.871
371.154	1.17197
371.366	1.08839
371.578	1.58269
371.79	0.7488
372.002	2.34434
372.214	2.76716
372.425	1.62693
372.637	2.27688
372.849	1.4485
373.061	-0.03928
373.273	1.68441
373.484	1.8983
373.696	2.03969
373.908	-0.16606
374.12	2.11344
374.331	1.87041
374.543	0.87395
374.755	0.58323
374.967	1.70596
375.178	1.82916
375.39	1.32104
375.602	1.55007
375.813	0.62542
376.025	0.40698
376.236	1.31158
376.448	1.4926
376.66	0.91383
376.871	1.04481
377.083	2.16796
377.294	2.19347
377.506	0.93545
377.717	2.2554
377.929	1.28811
378.14	0.7326
378.352	1.77612
378.563	1.63726
378.775	2.34542
378.986	0.92585
379.197	1.37985
379.409	1.04839
379.62	2.05061
379.832	1.6437
380.043	1.13517
380.254	1.3392
380.466	0.49905
380.677	3.45352
380.888	3.05159
381.1	3.2331
381.311	2.80544
381.522	1.48418
381.733	3.42529
381.945	1.12673
382.156	1.4924
382.367	1.06463
382.578	3.33276
382.789	3.20332
383.001	1.11321
383.212	2.05558
383.423	2.31095
383.634	2.13024
383.845	1.63435
384.056	1.04364
384.267	1.15765
384.478	1.20405
384.69	0.54523
384.901	1.76547
385.112	1.56347
385.323	2.29398
385.534	1.66355
385.745	1.59255
385.956	1.62549
386.167	0.63377
386.378	1.55923
386.588	0.26223
386.799	0.81887
387.01	0.11942
387.221	1.97999
387.432	1.16605
387.643	2.67113
387.854	1.2863
388.065	1.0709
388.275	1.12355
388.486	1.13651
388.697	1.3328
388.908	1.16709
389.119	2.22855
389.329	2.38056
389.54	1.30166
389.751	1.63909
389.962	2.06299
390.172	1.50465
390.383	0.89664
390.594	0.98675
390.804	0.76469
391.015	0.7605
391.226	1.25523
391.436	1.51011
391.647	1.6187
391.858	1.70431
392.068	0.23555
392.279	0.36174
392.489	1.18858
392.7	2.09109
392.91	0.52939
393.121	0.73464
393.331	1.62848
393.542	1.92285
393.752	1.43734
393.963	1.21502
394.173	1.13211
394.384	1.54
394.594	1.07981
394.804	0.47426
395.015	1.27577
395.225	1.4281
395.436	0.53478
395.646	1.76749
395.856	0.61238
396.067	0.55368
396.277	1.99452
396.487	1.35661
396.697	1.0966
396.908	1.67407
397.118	1.81543
397.328	1.45114
397.538	2.03878
397.749	0.69078
397.959	1.7859
398.169	1.87741
398.379	0.48046
398.589	1.72258
398.8	1.24524
399.01	0.99483
399.22	1.18808
399.43	2.95175
399.64	0.88194
399.85	1.73288
400.06	1.01511
400.27	0.88465
400.48	1.34264
400.69	2.4782
400.9	0.97441
401.11	0.85423
401.32	1.97432
401.53	1.13832
401.74	2.48121
401.95	1.94608
402.16	0.46715
402.37	1.41392
402.58	0.81482
402.79	1.89691
403	1.87407
403.209	1.0042
403.419	1.87631
403.629	0.88345
403.839	1.6747
404.049	1.83591
404.258	0.69964
404.468	0.56473
404.678	1.61642
404.888	1.58292
405.097	0.53103
405.307	1.23264
405.517	1.51764
405.727	1.31456
405.936	1.00378
406.146	1.44183
406.356	2.21422
406.565	1.33987
406.775	0.80218
406.984	0.81162
407.194	2.49098
407.404	1.33186
407.613	1.59124
407.823	1.98809
408.032	2.01929
408.242	2.08062
408.451	1.07025
408.661	1.28141
408.87	2.41973
409.08	0.91261
409.289	1.79663
409.499	1.26133
409.708	1.48717
409.918	0.10077
410.127	1.22209
410.336	2.24173
410.546	1.74148
410.755	0.84402
410.964	1.03366
411.174	0.71717
411.383	1.63961
411.592	1.76179
411.802	0.70228
412.011	2.13076
412.22	1.33311
412.429	2.51516
412.639	2.23194
412.848	2.24659
413.057	2.40171
413.266	2.23747
413.475	1.25963
413.685	1.99176
413.894	1.83243
414.103	2.3077
414.312	1.87398
414.521	1.35397
414.73	1.54992
414.939	2.74142
415.148	1.87279
415.357	1.53942
415.566	1.10608
415.776	1.13981
415.985	0.99747
416.194	1.82913
416.403	2.34986
416.611	0.50089
416.82	0.81737
417.029	1.33201
417.238	0.91617
417.447	0.69948
417.656	0.91754
417.865	0.72908
418.074	0.98876
418.283	1.21771
418.492	1.78553
418.7	1.70516
418.909	2.35554
419.118	1.48518
419.327	1.72986
419.536	1.48541
419.744	1.07747
419.953	2.2511
420.162	2.24138
420.371	1.14046
420.579	1.10452
420.788	2.08284
420.997	2.05266
421.205	2.03817
421.414	1.78216
421.623	1.78148
421.831	1.31015
422.04	2.20797
422.249	1.41208
422.457	1.93492
422.666	1.35897
422.874	2.35724
423.083	2.34772
423.291	2.19464
423.5	1.84347
423.708	2.22365
423.917	2.48931
424.125	1.9167
424.334	1.67395
424.542	3.47112
424.751	2.73607
424.959	2.48937
425.167	2.8618
425.376	2.68025
425.584	2.03968
425.793	2.37828
426.001	1.33169
426.209	2.33566
426.418	1.40363
426.626	1.43898
426.834	1.2031
427.042	1.60137
427.251	1.24004
427.459	2.04765
427.667	1.70032
