Data from WindowProjectSample_Transmission__57__00057__08177316153488021.txt Node

Date: Mon May 05 18:20:21 EDT 2025
User: jessi
Spectrometer: SR400872
Trigger mode: 0
Integration Time (sec): 5.000010E-1
Scans to average: 20
Electric dark correction enabled: true
Nonlinearity correction enabled: true
Boxcar width: 0
XAxis mode: Wavelengths
Number of Pixels in Spectrum: 3648
>>>>>Begin Spectral Data<<<<<
184.909	20381.92104
185.132	-5016.7317
185.355	-2999.7686
185.578	-17387.13044
185.801	1877.81686
186.024	10182.98196
186.247	-1574.28562
186.47	1075.93654
186.693	260.34287
186.916	279.72556
187.139	-3629.71379
187.362	3358.62845
187.585	3987.5237
187.808	3426.11883
188.031	-59.28249
188.254	-53693.28979
188.476	-726.32026
188.699	6229.79778
188.922	503.81422
189.145	-14856.38957
189.368	-697.01829
189.591	-1271.66648
189.813	3074.10264
190.036	-49000.69328
190.259	-804.77844
190.482	-4680.74368
190.705	7197.09422
190.927	-2662.01759
191.15	12747.84788
191.373	3286.1803
191.595	-8475.1496
191.818	-3990.5486
192.041	-7155.17584
192.263	-3408.65544
192.486	-798.28765
192.709	-3901.04147
192.931	7649.2749
193.154	-28027.36816
193.377	-2805.31219
193.599	-2452.84627
193.822	-8644.99391
194.044	-1854.55595
194.267	1253.32107
194.489	313.64554
194.712	-41620.07706
194.934	-31230.01758
195.157	1056.24794
195.379	1355.82479
195.602	-6729.30635
195.824	-1268.34325
196.047	-8505.12667
196.269	2629.21581
196.492	-6326.15484
196.714	28391.97168
196.936	-8393.07532
197.159	-1153.63705
197.381	1243.54661
197.604	479.94922
197.826	11214.68239
198.048	-11257.5782
198.271	-2713.88781
198.493	7224.58355
198.715	2404.60496
198.938	-377.65217
199.16	6951.3502
199.382	-99302.01893
199.604	2775.79012
199.827	-1028.16698
200.049	-2647.7148
200.271	14461.21252
200.493	1163.76402
200.715	-36701.72327
200.938	-5792.54189
201.16	-4095.79535
201.382	20512.4535
201.604	2355.68015
201.826	2228.03001
202.048	-1927.10036
202.27	-1867.44137
202.492	-38213.01795
202.715	2811.00503
202.937	-4513.54342
203.159	-6439.70183
203.381	1406.37818
203.603	6408.29266
203.825	6127.77368
204.047	2167.53287
204.269	-2822.10843
204.491	2217.46306
204.713	5782.58498
204.935	-478750.09829
205.156	1149.72012
205.378	-2730.90143
205.6	1558.7687
205.822	150495.66009
206.044	-887.46489
206.266	1436.37422
206.488	4743.2718
206.71	-5033.89907
206.932	1126.73483
207.153	11810.79439
207.375	-6599.89717
207.597	-37804.5661
207.819	-2645.41596
208.041	2368.21068
208.262	477.03087
208.484	684.57118
208.706	-777.38735
208.927	-744.0649
209.149	523.7493
209.371	-2892.13702
209.593	-243.15914
209.814	-835.11273
210.036	558.49608
210.258	-635.2687
210.479	1722.80038
210.701	1670.68144
210.922	3309.82958
211.144	-3826.12027
211.366	2097.66431
211.587	7675.96727
211.809	-8126.04993
212.03	2379.86272
212.252	529.94679
212.473	2252.69702
212.695	-6647.68557
212.916	2918.63469
213.138	-782.81795
213.359	3592.07206
213.581	5400.11838
213.802	-878.68221
214.024	1079.21769
214.245	1960.16555
214.466	2198.05798
214.688	-3054.30119
214.909	-1172.15564
215.131	-1728.65389
215.352	-3107.02884
215.573	14662.73114
215.795	4937.69172
216.016	5400.34267
216.237	817.95012
216.459	3657.35279
216.68	1736.09087
216.901	5076.66911
217.122	-3172.07249
217.344	-11421.09703
217.565	3397.05787
217.786	8951.72205
218.007	16176.68373
218.228	-757.66549
218.45	5917.87808
218.671	906.40241
218.892	35260.12002
219.113	1552.65246
219.334	-382.08705
219.555	9821.37701
219.776	3107.4322
219.997	21944.98234
220.219	2679.57556
220.44	-11305.96197
220.661	464.8768
220.882	1496.73724
221.103	-1100.02914
221.324	2148.40496
221.545	2172.536
221.766	-8723.75474
221.987	835.16358
222.208	1656.49404
222.429	4194.85252
222.65	350.33918
222.87	19728.42665
223.091	734.71706
223.312	603.99693
223.533	1407.63267
223.754	1473.8101
223.975	1325.3067
224.196	1932.16447
224.417	1293.05884
224.637	614.39584
224.858	115.1161
225.079	1047.88564
225.3	685.83737
225.521	3691.82244
225.741	451.08725
225.962	493.62057
226.183	134.71436
226.404	639.18287
226.624	424.52626
226.845	593.42878
227.066	411.69527
227.286	244.7757
227.507	118.9652
227.728	109.86585
227.948	232.18384
228.169	70.38484
228.389	83.39896
228.61	46.37853
228.831	61.44252
229.051	2.51379
229.272	37.7655
229.492	55.68428
229.713	14.60125
229.933	37.07286
230.154	31.74552
230.374	53.95512
230.595	37.40386
230.815	23.40429
231.036	38.23506
231.256	-8.71403
231.477	64.00417
231.697	37.30975
231.917	40.90822
232.138	55.64345
232.358	103.87798
232.579	99.48755
232.799	18.19476
233.019	99.07934
233.24	110.87942
233.46	36.26637
233.68	62.2315
233.901	42.48094
234.121	26.15307
234.341	11.69725
234.561	-5.01836
234.782	21.12082
235.002	68.35087
235.222	-4.22124
235.442	63.81303
235.662	35.90392
235.883	62.23115
236.103	49.84292
236.323	35.29885
236.543	27.80824
236.763	39.61844
236.983	41.6197
237.203	40.37519
237.423	57.31702
237.643	84.04131
237.864	72.88255
238.084	17.81296
238.304	26.67423
238.524	45.31292
238.744	42.65984
238.964	75.82407
239.184	62.12126
239.404	63.03208
239.624	34.45025
239.843	57.91538
240.063	35.99883
240.283	20.91554
240.503	25.76498
240.723	24.99649
240.943	13.6275
241.163	19.08198
241.383	14.56934
241.603	7.08528
241.822	9.59118
242.042	6.16256
242.262	8.33239
242.482	9.69611
242.702	10.29955
242.921	2.88834
243.141	6.218
243.361	6.09245
243.581	9.33717
243.8	7.19749
244.02	4.98233
244.24	9.30458
244.459	8.82535
244.679	17.81987
244.899	11.04887
245.118	12.05021
245.338	11.84679
245.558	13.32615
245.777	8.16459
245.997	10.30271
246.216	10.35457
246.436	6.54463
246.655	4.51486
246.875	3.13397
247.094	6.2219
247.314	2.04286
247.533	3.42197
247.753	4.30489
247.972	3.29597
248.192	1.13045
248.411	1.7029
248.631	3.47966
248.85	4.52387
249.07	3.81457
249.289	5.66093
249.508	4.93107
249.728	7.53235
249.947	7.03254
250.166	8.54994
250.386	4.03066
250.605	7.04152
250.824	10.7649
251.044	7.17173
251.263	28.11087
251.482	14.07016
251.701	11.66775
251.921	-0.47776
252.14	3.16143
252.359	4.21361
252.578	9.93196
252.798	3.11801
253.017	8.79909
253.236	3.99148
253.455	5.82885
253.674	10.40466
253.893	4.89299
254.112	7.9302
254.331	10.91897
254.551	8.11098
254.77	3.50057
254.989	13.38637
255.208	9.53962
255.427	14.23002
255.646	10.91565
255.865	21.55801
256.084	7.87331
256.303	10.34877
256.522	13.54485
256.741	2.61484
256.96	3.39492
257.179	7.52956
257.397	10.39197
257.616	5.50457
257.835	5.95526
258.054	14.8747
258.273	10.30793
258.492	10.90906
258.711	6.30946
258.93	2.97287
259.148	4.84396
259.367	4.39111
259.586	5.56341
259.805	2.35568
260.023	5.1963
260.242	3.83543
260.461	2.80041
260.68	1.28353
260.898	4.30679
261.117	1.23679
261.336	0.9613
261.554	3.45377
261.773	3.06797
261.992	0.70406
262.21	3.32529
262.429	3.26563
262.648	7.30687
262.866	8.00192
263.085	5.40671
263.303	4.79919
263.522	8.78654
263.74	8.70318
263.959	15.05332
264.178	6.84763
264.396	6.25956
264.615	4.58644
264.833	10.55105
265.051	8.61439
265.27	10.51348
265.488	11.14354
265.707	5.91904
265.925	10.53823
266.144	4.5872
266.362	5.81298
266.58	5.47565
266.799	4.95459
267.017	5.89078
267.235	5.16478
267.454	3.28394
267.672	1.98553
267.89	4.20678
268.109	4.27908
268.327	4.3457
268.545	0.81174
268.763	3.86304
268.982	1.35477
269.2	4.30371
269.418	3.1467
269.636	1.84547
269.854	4.69122
270.073	3.19307
270.291	1.93174
270.509	1.87478
270.727	4.21514
270.945	6.97982
271.163	7.01439
271.381	1.3983
271.599	3.00794
271.817	5.34801
272.036	1.80729
272.254	3.18792
272.472	2.2999
272.69	2.4566
272.908	2.3773
273.126	4.2833
273.344	5.16536
273.562	1.73968
273.779	2.62339
273.997	3.77933
274.215	4.06689
274.433	2.91869
274.651	4.44663
274.869	4.76226
275.087	2.82442
275.305	3.96519
275.523	2.37616
275.74	2.83795
275.958	5.34565
276.176	7.88634
276.394	2.54923
276.612	3.20598
276.829	3.2223
277.047	2.51767
277.265	2.96295
277.483	3.43998
277.7	4.19935
277.918	3.48495
278.136	6.20049
278.353	2.77615
278.571	1.81565
278.789	4.09398
279.006	0.79727
279.224	3.00814
279.442	5.2422
279.659	3.39909
279.877	2.30906
280.094	5.76996
280.312	0.98599
280.529	3.46347
280.747	0.97102
280.964	2.78921
281.182	5.70782
281.399	2.46689
281.617	3.74182
281.834	2.27838
282.052	1.79314
282.269	3.20338
282.487	2.37612
282.704	2.10111
282.921	2.21218
283.139	3.32109
283.356	3.92595
283.574	3.87919
283.791	1.81528
284.008	5.50778
284.226	2.93916
284.443	3.238
284.66	4.17177
284.877	3.25064
285.095	2.06939
285.312	1.67921
285.529	0.91039
285.746	0.86871
285.964	2.08894
286.181	1.34812
286.398	1.96641
286.615	2.52707
286.832	2.44303
287.05	0.53356
287.267	1.75877
287.484	1.85702
287.701	2.63452
287.918	2.60729
288.135	2.63968
288.352	1.24516
288.569	1.39698
288.786	2.35936
289.003	2.06539
289.22	3.05041
289.437	1.58363
289.654	2.83594
289.871	2.9891
290.088	2.88768
290.305	2.2076
290.522	1.70041
290.739	1.96461
290.956	3.06881
291.173	3.49173
291.39	3.45303
291.607	2.3439
291.824	1.72166
292.04	1.34218
292.257	2.78866
292.474	3.2285
292.691	2.04476
292.908	0.96459
293.125	1.68563
293.341	1.11418
293.558	4.98454
293.775	1.8459
293.992	2.08158
294.208	0.93945
294.425	1.33144
294.642	1.92709
294.858	2.61691
295.075	0.58753
295.292	1.90086
295.508	2.30148
295.725	3.97038
295.942	1.66166
296.158	1.20183
296.375	2.02926
296.591	1.54826
296.808	1.72359
297.024	1.91756
297.241	2.21682
297.458	2.36466
297.674	0.24895
297.891	1.82792
298.107	1.49844
298.323	1.06322
298.54	3.08349
298.756	1.30217
298.973	0.64563
299.189	3.16613
299.406	1.27903
299.622	2.78967
299.838	2.69685
300.055	2.68166
300.271	0.68857
300.487	1.13837
300.704	1.31426
300.92	0.79972
301.136	4.23977
301.353	2.57318
301.569	1.91557
301.785	2.13455
302.001	2.72101
302.218	2.27144
302.434	2.35891
302.65	0.85436
302.866	1.55598
303.083	3.9603
303.299	3.85499
303.515	2.10624
303.731	2.24407
303.947	0.74846
304.163	1.46178
304.379	2.15885
304.595	2.55064
304.812	1.40412
305.028	1.38268
305.244	1.82418
305.46	2.60748
305.676	2.85379
305.892	3.21463
306.108	2.46784
306.324	1.55292
306.54	3.80303
306.756	2.34604
306.972	2.51832
307.187	1.83805
307.403	3.37779
307.619	1.63845
307.835	3.11112
308.051	3.59458
308.267	1.12914
308.483	3.09359
308.699	2.62389
308.914	2.08915
309.13	1.92821
309.346	0.86313
309.562	1.16652
309.778	0.81918
309.993	2.50588
310.209	2.07458
310.425	1.00093
310.641	1.92564
310.856	1.17871
311.072	1.06563
311.288	1.97872
311.503	2.1064
311.719	0.5382
311.935	0.39208
312.15	2.47507
312.366	2.04346
312.581	2.42334
312.797	1.89042
313.013	2.81342
313.228	1.48809
313.444	1.91726
313.659	1.47331
313.875	2.54284
314.09	1.93395
314.306	3.20987
314.521	2.85907
314.737	2.72561
314.952	2.09594
315.168	2.04919
315.383	2.40951
315.599	1.91324
315.814	1.87403
316.029	2.79042
316.245	1.10357
316.46	0.65936
316.675	3.15245
316.891	3.67873
317.106	4.65638
317.321	2.38993
317.537	2.75136
317.752	2.82258
317.967	3.08544
318.183	1.37524
318.398	1.919
318.613	3.04318
318.828	3.37218
319.043	2.83831
319.259	1.89992
319.474	2.45054
319.689	3.2543
319.904	0.63503
320.119	2.86604
320.334	2.28987
320.549	1.99337
320.765	3.02537
320.98	2.46033
321.195	2.77457
321.41	2.1312
321.625	2.88817
321.84	3.75424
322.055	3.70401
322.27	1.72445
322.485	1.26522
322.7	2.65606
322.915	2.97991
323.13	1.51726
323.345	3.71744
323.56	2.91618
323.775	2.84204
323.989	2.55356
324.204	2.5357
324.419	3.12463
324.634	1.17047
324.849	2.07739
325.064	5.27573
325.279	3.04468
325.493	2.66336
325.708	3.00546
325.923	1.62891
326.138	1.73818
326.352	3.83254
326.567	3.21817
326.782	1.84842
326.997	1.7174
327.211	2.75709
327.426	2.53539
327.641	1.97022
327.855	0.88387
328.07	2.71498
328.285	3.74557
328.499	1.80901
328.714	2.43884
328.928	2.78301
329.143	2.19562
329.358	3.24243
329.572	3.23609
329.787	3.58877
330.001	4.43191
330.216	1.34603
330.43	4.03224
330.645	3.87135
330.859	3.20371
331.074	1.65381
331.288	2.52001
331.503	3.45703
331.717	1.41184
331.931	2.59923
332.146	2.55848
332.36	3.99408
332.575	2.73536
332.789	2.5457
333.003	2.52096
333.218	2.86681
333.432	1.797
333.646	3.16714
333.86	3.86684
334.075	3.80087
334.289	1.99442
334.503	1.49352
334.717	2.80947
334.932	2.77898
335.146	3.34865
335.36	1.9599
335.574	2.93934
335.788	2.71467
336.003	3.14603
336.217	3.00229
336.431	2.7827
336.645	1.96129
336.859	1.4116
337.073	2.28103
337.287	2.66512
337.501	1.45823
337.715	2.75777
337.929	3.247
338.143	1.485
338.357	2.23166
338.571	1.8337
338.785	2.84583
338.999	2.1265
339.213	1.93434
339.427	1.321
339.641	3.57675
339.855	2.20086
340.069	1.97084
340.283	3.31249
340.497	4.0787
340.711	2.83041
340.924	2.29243
341.138	1.50502
341.352	1.40355
341.566	2.67153
341.78	1.21343
341.993	2.09886
342.207	1.65306
342.421	2.66128
342.635	2.2898
342.848	2.0844
343.062	0.62191
343.276	1.81496
343.49	4.10568
343.703	1.84255
343.917	3.41939
344.131	3.35247
344.344	1.76936
344.558	2.16938
344.771	1.46784
344.985	3.79253
345.199	3.75405
345.412	2.67003
345.626	2.84993
345.839	1.12922
346.053	1.50128
346.266	1.65985
346.48	3.04954
346.693	2.84236
346.907	2.77057
347.12	1.72883
347.334	2.72536
347.547	2.77531
347.76	2.14752
347.974	3.44634
348.187	2.71212
348.401	2.23061
348.614	1.90609
348.827	2.19185
349.041	2.91012
349.254	1.28259
349.467	2.26556
349.681	1.61697
349.894	1.94432
350.107	3.53131
350.32	4.03282
350.534	1.36877
350.747	2.17869
350.96	1.76652
351.173	1.94486
351.386	2.2097
351.6	2.1048
351.813	2.10554
352.026	2.31041
352.239	1.49581
352.452	2.18511
352.665	3.1821
352.878	2.55564
353.092	4.11922
353.305	3.2224
353.518	2.57287
353.731	1.83877
353.944	3.49855
354.157	2.09942
354.37	1.97366
354.583	1.63587
354.796	1.32017
355.009	3.26541
355.222	2.80374
355.435	2.57779
355.647	3.28095
355.86	1.93337
356.073	2.58502
356.286	2.21371
356.499	3.10534
356.712	2.856
356.925	3.02572
357.138	3.1751
357.35	1.8567
357.563	2.24487
357.776	2.63783
357.989	2.3463
358.201	2.96432
358.414	2.80906
358.627	3.64233
358.84	2.44948
359.052	1.59343
359.265	2.05617
359.478	3.40031
359.69	0.84346
359.903	3.13175
360.116	3.33464
360.328	1.44996
360.541	3.26765
360.753	1.93853
360.966	2.28151
361.179	2.34962
361.391	2.23397
361.604	2.05514
361.816	2.32762
362.029	2.14365
362.241	2.00275
362.454	2.21398
362.666	1.93397
362.879	2.79283
363.091	2.29089
363.304	2.06146
363.516	2.47909
363.728	1.85808
363.941	2.95729
364.153	2.53211
364.366	1.22848
364.578	1.80476
364.79	2.838
365.003	2.55525
365.215	2.18719
365.427	3.04248
365.639	3.36392
365.852	2.71959
366.064	4.26585
366.276	2.54422
366.488	2.86562
366.701	2.43363
366.913	2.44343
367.125	2.45691
367.337	1.9723
367.549	2.20596
367.762	2.7965
367.974	2.61187
368.186	2.28422
368.398	3.35072
368.61	3.15903
368.822	3.11709
369.034	2.57252
369.246	3.26355
369.458	4.85119
369.67	2.13765
369.882	4.11285
370.094	1.50042
370.306	3.93102
370.518	2.57745
370.73	2.30178
370.942	2.3279
371.154	2.68718
371.366	2.45784
371.578	3.0422
371.79	2.41663
372.002	3.49992
372.214	4.29689
372.425	2.81047
372.637	3.84065
372.849	3.05243
373.061	1.49331
373.273	3.17778
373.484	2.98779
373.696	3.53126
373.908	1.44823
374.12	3.62441
374.331	3.18237
374.543	2.35684
374.755	2.19366
374.967	3.01451
375.178	3.46518
375.39	2.60696
375.602	2.96535
375.813	1.83104
376.025	2.23001
376.236	2.94932
376.448	3.14481
376.66	2.64115
376.871	2.67287
377.083	3.79656
377.294	3.99032
377.506	2.63209
377.717	3.92333
377.929	3.1234
378.14	2.58496
378.352	3.23312
378.563	3.23617
378.775	3.92015
378.986	2.38073
379.197	3.08831
379.409	2.55207
379.62	3.4842
379.832	3.38135
380.043	2.96621
380.254	3.17572
380.466	2.36519
380.677	5.01681
380.888	4.43046
381.1	4.85135
381.311	4.86767
381.522	3.09124
381.733	5.15876
381.945	3.02175
382.156	3.12633
382.367	2.76267
382.578	5.07248
382.789	5.05346
383.001	2.80596
383.212	4.246
383.423	4.21279
383.634	4.03155
383.845	3.75399
384.056	2.95339
384.267	3.28376
384.478	3.31583
384.69	2.46107
384.901	3.46652
385.112	3.42871
385.323	4.39786
385.534	3.60675
385.745	3.47567
385.956	3.5646
386.167	2.70304
386.378	3.6354
386.588	2.79972
386.799	2.83998
387.01	2.29456
387.221	3.92524
387.432	3.24362
387.643	4.6469
387.854	3.21232
388.065	3.21841
388.275	3.26233
388.486	3.03142
388.697	3.30039
388.908	3.12813
389.119	4.19732
389.329	4.41643
389.54	3.41725
389.751	3.78441
389.962	4.31442
390.172	3.58477
390.383	3.21839
390.594	3.08837
390.804	3.08343
391.015	3.18232
391.226	3.5892
391.436	3.94734
391.647	3.70885
391.858	3.93255
392.068	2.55292
392.279	2.89415
392.489	3.64385
392.7	4.28058
392.91	3.08466
393.121	3.08592
393.331	3.83458
393.542	4.34081
393.752	3.93604
393.963	4.01056
394.173	3.75574
394.384	4.02697
394.594	3.73043
394.804	2.97744
395.015	3.81662
395.225	3.92692
395.436	3.11952
395.646	4.07637
395.856	3.31022
396.067	2.83706
396.277	4.23207
396.487	4.00053
396.697	3.9404
396.908	4.06816
397.118	4.09087
397.328	3.98266
397.538	4.46038
397.749	3.39158
397.959	4.28401
398.169	4.18663
398.379	3.02035
398.589	4.23369
398.8	3.93486
399.01	3.89487
399.22	3.62459
399.43	5.2929
399.64	3.83177
399.85	4.24978
400.06	4.01902
400.27	3.36446
400.48	3.92643
400.69	4.86166
400.9	3.62114
401.11	3.3994
401.32	4.4268
401.53	3.6803
401.74	4.93279
401.95	4.37721
402.16	3.52152
402.37	4.21405
402.58	3.66886
402.79	4.4325
403	4.70346
403.209	3.69717
403.419	4.72342
403.629	3.63702
403.839	4.65562
404.049	4.57382
404.258	3.88913
404.468	3.73588
404.678	4.39908
404.888	4.80488
405.097	3.98692
405.307	4.05243
405.517	4.57488
405.727	4.49309
405.936	4.04927
406.146	4.37038
406.356	5.08207
406.565	4.22552
406.775	3.99941
406.984	3.94687
407.194	5.28256
407.404	4.20425
407.613	4.635
407.823	4.72432
408.032	4.93278
408.242	4.9846
408.451	3.97092
408.661	4.27058
408.87	5.3601
409.08	3.91301
409.289	4.62019
409.499	4.56758
409.708	4.45109
409.918	3.25617
410.127	4.64618
410.336	5.43602
410.546	4.90513
410.755	4.28353
410.964	4.34279
411.174	4.03627
411.383	4.82287
411.592	4.82715
411.802	3.94462
412.011	5.0013
412.22	4.43476
412.429	5.63038
412.639	5.43356
412.848	5.18996
413.057	5.43826
413.266	5.47005
413.475	4.81722
413.685	5.06603
413.894	5.31722
414.103	5.40056
414.312	5.26813
414.521	4.63252
414.73	4.78963
414.939	6.14266
415.148	5.13724
415.357	5.03489
415.566	4.70521
415.776	4.69756
415.985	4.77521
416.194	5.4435
416.403	6.05389
416.611	4.34288
416.82	4.83776
417.029	5.20125
417.238	4.84773
417.447	4.70124
417.656	4.98292
417.865	4.83752
418.074	5.04616
418.283	5.26211
418.492	5.83137
418.7	5.63005
418.909	6.42702
419.118	5.66089
419.327	5.93066
419.536	5.83625
419.744	5.78483
419.953	6.7996
420.162	6.93521
420.371	6.3442
420.579	6.60399
420.788	7.4239
420.997	7.53932
421.205	7.74728
421.414	7.51524
421.623	7.50935
421.831	7.15006
422.04	7.67198
422.249	6.96778
422.457	7.4175
422.666	6.72261
422.874	7.5247
423.083	7.56879
423.291	7.6431
423.5	7.38307
423.708	7.79775
423.917	8.12115
424.125	7.75405
424.334	7.62849
424.542	9.03382
424.751	8.5541
424.959	8.16415
425.167	8.30293
425.376	8.22938
425.584	7.34214
425.793	7.38392
426.001	6.5788
426.209	6.86938
426.418	5.98475
426.626	5.87767
426.834	5.79691
427.042	6.06229
