Data from WindowProjectSample_Transmission__54__00054.txt Node

Date: Sat May 03 16:50:48 EDT 2025
User: jessi
Spectrometer: SR400872
Trigger mode: 0
Integration Time (sec): 5.000010E-1
Scans to average: 6
Electric dark correction enabled: true
Nonlinearity correction enabled: true
Boxcar width: 0
XAxis mode: Wavelengths
Number of Pixels in Spectrum: 3648
>>>>>Begin Spectral Data<<<<<
184.909	180648.34735
185.132	1592.54987
185.355	-2004.14834
185.578	3318.37888
185.801	-76.72238
186.024	6281.78144
186.247	1129.20889
186.47	1114.9709
186.693	-595.29096
186.916	422.31634
187.139	10074.9032
187.362	3347.56001
187.585	2787.80582
187.808	-1519.26568
188.031	-85.92854
188.254	7834.8206
188.476	532.95414
188.699	-4269.91506
188.922	-369.06874
189.145	-4305.84242
189.368	-393.77588
189.591	-839.10471
189.813	-2124.20983
190.036	4851.40582
190.259	3284.27467
190.482	2399.86428
190.705	8271.45329
190.927	-1494.38978
191.15	-1639.76004
191.373	4883.33619
191.595	-2093.15102
191.818	9509.96685
192.041	-224.65613
192.263	-2237.79299
192.486	-982.90654
192.709	9026.4736
192.931	-2597.65035
193.154	-1998.66242
193.377	4529.09308
193.599	5729.56659
193.822	-1953.73894
194.044	-1691.00447
194.267	662.28217
194.489	-0.6196
194.712	2142.6264
194.934	3501.29919
195.157	-6722.33925
195.379	1836.97915
195.602	5061.48583
195.824	5631.63658
196.047	-7864.5423
196.269	-11180.07372
196.492	-1001.5457
196.714	-4634.22319
196.936	4542.21439
197.159	-2607.71064
197.381	-473.86838
197.604	979.82005
197.826	-3185.21821
198.048	-1217.37156
198.271	-12229.29049
198.493	10099.09386
198.715	-2414.65085
198.938	-733.09078
199.16	-3655.58422
199.382	1794.00294
199.604	-1365.22988
199.827	-1172.06927
200.049	-4269.47051
200.271	2338.24311
200.493	-26833.93031
200.715	4698.44472
200.938	12916.47925
201.16	-218985.01319
201.382	-5961.436
201.604	-1105.08177
201.826	-7021.56507
202.048	-6438.42372
202.27	-4563.78253
202.492	-3512.18253
202.715	-1315.36887
202.937	-3466.75121
203.159	1097.92347
203.381	-86223.33525
203.603	-970.63419
203.825	-1341.22566
204.047	2342.71351
204.269	-908.45998
204.491	6998.62237
204.713	-8976.87396
204.935	37911.14604
205.156	1928.22308
205.378	-6854.58867
205.6	-1538.94578
205.822	6284.63581
206.044	-211.82794
206.266	-1965.63586
206.488	752.17978
206.71	-513763.25105
206.932	-16532.8186
207.153	10458.78189
207.375	-2148.90647
207.597	15460.89198
207.819	1604.72949
208.041	6347.254
208.262	698.37193
208.484	-901.45553
208.706	-850.00283
208.927	11929.90922
209.149	-7947.77913
209.371	-2833.05951
209.593	-2428.95294
209.814	-4321.43485
210.036	2917.30721
210.258	-687.29419
210.479	2012.97131
210.701	855.24548
210.922	3933.03225
211.144	-1505.45605
211.366	5656.56094
211.587	-682.66653
211.809	-3371.5315
212.03	-2082.8162
212.252	-414.50854
212.473	2893.16487
212.695	-753.68426
212.916	-851.08993
213.138	624.69594
213.359	-1176.21971
213.581	-3223.1529
213.802	-1218.80333
214.024	10221.97139
214.245	-1075.52283
214.466	-122.99877
214.688	-3631.41598
214.909	-792.96959
215.131	9185.8114
215.352	-1106.66037
215.573	-244951.76805
215.795	4315.90319
216.016	-3722.77071
216.237	-542.49913
216.459	-10912.93231
216.68	-1587.32769
216.901	-1742.38048
217.122	1996.28484
217.344	-8501.18673
217.565	-1577.21033
217.786	22535.83632
218.007	846.5853
218.228	-3694.15244
218.45	-5785.77754
218.671	-1420.19674
218.892	875.46259
219.113	1691.01897
219.334	262.9643
219.555	-6259.62159
219.776	32751.64082
219.997	-6738.55797
220.219	-8722.00233
220.44	-4974.50202
220.661	-1377.04408
220.882	12428.91652
221.103	-818.60447
221.324	2532.25382
221.545	-6453.67318
221.766	-1453.28351
221.987	-472.43373
222.208	1874.16928
222.429	6732.80944
222.65	-207.90651
222.87	-743.79144
223.091	38297.72581
223.312	723.9288
223.533	-2122.28715
223.754	3800.9278
223.975	1579.72039
224.196	-764.66872
224.417	-29243.75701
224.637	-2207.10515
224.858	474.35722
225.079	3724.58174
225.3	1636.23004
225.521	3652.20135
225.741	-2334.84457
225.962	1542.35671
226.183	943.54921
226.404	1840.26253
226.624	1772.3904
226.845	1315.45345
227.066	2400.42895
227.286	632.44466
227.507	405.84785
227.728	382.53799
227.948	523.52296
228.169	131.90033
228.389	127.45018
228.61	55.0344
228.831	82.71277
229.051	8.37359
229.272	47.71209
229.492	62.29828
229.713	18.90285
229.933	50.10011
230.154	38.58179
230.374	65.5885
230.595	54.14965
230.815	32.00727
231.036	46.66835
231.256	-13.5373
231.477	103.02607
231.697	63.31939
231.917	54.37645
232.138	78.36737
232.358	168.72441
232.579	173.52932
232.799	29.05188
233.019	159.61476
233.24	225.88484
233.46	62.08118
233.68	111.81157
233.901	91.58076
234.121	37.95802
234.341	16.08308
234.561	-8.12508
234.782	31.87097
235.002	118.50844
235.222	-0.81165
235.442	90.73026
235.662	46.06022
235.883	103.9686
236.103	88.71758
236.323	64.98988
236.543	45.46077
236.763	74.59562
236.983	65.04766
237.203	79.2849
237.423	108.94201
237.643	149.00594
237.864	145.07833
238.084	27.00372
238.304	46.84601
238.524	84.20787
238.744	69.58024
238.964	105.24858
239.184	110.68077
239.404	102.36252
239.624	47.68416
239.843	97.07179
240.063	50.3742
240.283	35.46471
240.503	36.28692
240.723	32.67416
240.943	20.30698
241.163	26.11072
241.383	18.59366
241.603	9.51174
241.822	12.9863
242.042	8.4103
242.262	10.52809
242.482	12.40826
242.702	14.91354
242.921	5.60583
243.141	9.54898
243.361	8.1076
243.581	12.46978
243.8	10.92327
244.02	7.47823
244.24	13.31153
244.459	14.83068
244.679	25.84856
244.899	17.00805
245.118	20.6928
245.338	15.50471
245.558	20.09247
245.777	11.79184
245.997	13.14462
246.216	13.17403
246.436	8.09481
246.655	5.48999
246.875	3.54706
247.094	8.30831
247.314	2.47504
247.533	4.5147
247.753	5.74498
247.972	4.2997
248.192	1.98777
248.411	2.84728
248.631	5.264
248.85	6.49545
249.07	5.04072
249.289	8.79999
249.508	6.90967
249.728	9.69915
249.947	11.42955
250.166	12.14697
250.386	6.82817
250.605	9.88117
250.824	14.87391
251.044	10.91766
251.263	36.06204
251.482	19.05865
251.701	17.0416
251.921	0.30558
252.14	5.54348
252.359	5.76677
252.578	13.72262
252.798	5.19428
253.017	12.89496
253.236	6.51238
253.455	8.15993
253.674	17.14926
253.893	7.21723
254.112	10.87002
254.331	17.11893
254.551	14.25839
254.77	7.1265
254.989	22.76947
255.208	18.25272
255.427	22.19419
255.646	21.26001
255.865	32.71039
256.084	11.90827
256.303	13.57379
256.522	21.30666
256.741	4.67266
256.96	5.83466
257.179	11.17871
257.397	16.1066
257.616	7.83105
257.835	8.90453
258.054	21.34756
258.273	12.48325
258.492	15.71564
258.711	8.60591
258.93	4.60703
259.148	5.48559
259.367	5.25575
259.586	7.00235
259.805	3.36194
260.023	6.66415
260.242	5.00423
260.461	3.65127
260.68	2.14855
260.898	5.91568
261.117	1.95722
261.336	1.68844
261.554	5.10736
261.773	4.97416
261.992	0.92378
262.21	5.4664
262.429	6.38214
262.648	10.55336
262.866	11.82128
263.085	7.45848
263.303	7.02969
263.522	11.96716
263.74	12.698
263.959	20.95973
264.178	10.5495
264.396	9.7275
264.615	7.13685
264.833	16.86937
265.051	13.71274
265.27	14.03567
265.488	16.36799
265.707	9.368
265.925	15.49174
266.144	6.32822
266.362	8.68091
266.58	8.82697
266.799	6.9479
267.017	8.18538
267.235	7.2654
267.454	4.71828
267.672	2.59777
267.89	6.04415
268.109	6.42861
268.327	5.82464
268.545	1.94076
268.763	5.9461
268.982	2.68881
269.2	7.53937
269.418	4.37535
269.636	3.41373
269.854	5.71249
270.073	4.81392
270.291	2.57683
270.509	2.84547
270.727	6.28932
270.945	9.87532
271.163	10.06337
271.381	2.37209
271.599	4.22231
271.817	7.25389
272.036	2.58289
272.254	4.42725
272.472	3.19572
272.69	3.46885
272.908	3.54908
273.126	6.10389
273.344	7.37375
273.562	2.74083
273.779	3.64211
273.997	5.21779
274.215	6.07791
274.433	4.44958
274.651	6.26771
274.869	6.74898
275.087	4.05767
275.305	6.02997
275.523	3.43011
275.74	4.75405
275.958	7.12922
276.176	10.61692
276.394	3.6686
276.612	4.23053
276.829	4.40965
277.047	3.31976
277.265	4.30307
277.483	4.8773
277.7	5.83813
277.918	4.96832
278.136	8.55748
278.353	4.47624
278.571	1.91272
278.789	7.10015
279.006	1.12003
279.224	3.79565
279.442	6.65971
279.659	4.87501
279.877	3.53522
280.094	7.7293
280.312	1.8224
280.529	4.4663
280.747	1.18837
280.964	3.72812
281.182	8.33036
281.399	3.53868
281.617	5.33153
281.834	3.76718
282.052	3.06317
282.269	4.09771
282.487	3.25483
282.704	2.779
282.921	2.9347
283.139	4.50737
283.356	6.09386
283.574	5.07565
283.791	2.5755
284.008	7.00965
284.226	3.7487
284.443	4.30564
284.66	5.87631
284.877	4.49837
285.095	2.8488
285.312	2.32012
285.529	1.48993
285.746	1.13487
285.964	2.85854
286.181	1.65395
286.398	2.61394
286.615	3.63418
286.832	3.45006
287.05	1.26516
287.267	2.56844
287.484	2.83923
287.701	4.01813
287.918	3.75203
288.135	3.86167
288.352	1.77802
288.569	1.98471
288.786	3.08177
289.003	2.73944
289.22	3.83763
289.437	2.46933
289.654	3.83386
289.871	4.28481
290.088	4.28089
290.305	3.1071
290.522	2.46647
290.739	2.84955
290.956	4.26412
291.173	5.08507
291.39	4.94217
291.607	3.35856
291.824	2.60656
292.04	1.82849
292.257	4.03085
292.474	4.50573
292.691	2.79285
292.908	1.55016
293.125	2.68038
293.341	1.46933
293.558	6.96222
293.775	3.04455
293.992	2.50981
294.208	0.98702
294.425	1.92721
294.642	2.51735
294.858	3.79164
295.075	1.13621
295.292	2.55092
295.508	3.41498
295.725	5.0664
295.942	2.70462
296.158	2.30841
296.375	3.50646
296.591	2.76159
296.808	3.16382
297.024	3.62982
297.241	3.92757
297.458	4.31438
297.674	1.65035
297.891	3.71294
298.107	3.916
298.323	2.77434
298.54	5.56163
298.756	3.52292
298.973	2.624
299.189	5.98608
299.406	3.83283
299.622	5.48931
299.838	5.90293
300.055	5.5044
300.271	3.35952
300.487	3.68681
300.704	4.18371
300.92	3.57264
301.136	8.33291
301.353	5.73914
301.569	5.16656
301.785	5.39953
302.001	6.33489
302.218	5.80455
302.434	6.21078
302.65	3.99796
302.866	5.00067
303.083	8.6847
303.299	8.41401
303.515	5.83605
303.731	6.72605
303.947	4.56853
304.163	5.24914
304.379	6.4101
304.595	6.76298
304.812	5.17804
305.028	5.15423
305.244	5.52108
305.46	7.05155
305.676	7.47851
305.892	8.26126
306.108	7.07995
306.324	5.82359
306.54	8.86912
306.756	6.61733
306.972	6.83492
307.187	6.67621
307.403	7.88232
307.619	5.89407
307.835	7.59122
308.051	8.20909
308.267	5.20611
308.483	8.50863
308.699	7.2339
308.914	7.34235
309.13	6.66658
309.346	5.54864
309.562	5.91271
309.778	5.51022
309.993	7.74626
310.209	7.70557
310.425	5.84477
310.641	7.49693
310.856	6.3159
311.072	6.21768
311.288	7.09704
311.503	8.15669
311.719	5.60657
311.935	6.00417
312.15	8.4529
312.366	8.295
312.581	8.30579
312.797	8.20953
313.013	8.49976
313.228	6.98658
313.444	7.02776
313.659	6.44712
313.875	8.04379
314.09	6.94354
314.306	8.35355
314.521	8.2427
314.737	8.44493
314.952	7.78675
315.168	7.62589
315.383	7.63889
315.599	6.57215
315.814	7.14967
316.029	8.08655
316.245	6.3169
316.46	4.73835
316.675	8.42974
316.891	9.46648
317.106	11.01246
317.321	7.69255
317.537	8.18937
317.752	8.44802
317.967	7.98709
318.183	6.06758
318.398	6.91114
318.613	8.4484
318.828	8.98071
319.043	7.89489
319.259	6.91381
319.474	7.59823
319.689	8.65492
319.904	5.16407
320.119	8.57448
320.334	7.35953
320.549	7.33768
320.765	8.66712
320.98	8.03281
321.195	7.42042
321.41	7.27495
321.625	8.17246
321.84	9.26484
322.055	8.87941
322.27	6.36816
322.485	5.4165
322.7	7.67498
322.915	8.08707
323.13	6.83632
323.345	9.39871
323.56	9.14681
323.775	8.75727
323.989	8.51848
324.204	7.77214
324.419	9.12965
324.634	6.18902
324.849	7.88679
325.064	11.40749
325.279	9.41203
325.493	8.67543
325.708	8.85918
325.923	6.99658
326.138	7.97593
326.352	9.8986
326.567	9.16435
326.782	7.3104
326.997	7.49862
327.211	8.67576
327.426	8.07397
327.641	7.90209
327.855	6.37377
328.07	9.31394
328.285	10.59816
328.499	7.39252
328.714	8.35113
328.928	8.11534
329.143	8.08109
329.358	9.27358
329.572	9.51969
329.787	10.17517
330.001	11.37525
330.216	5.80393
330.43	10.93264
330.645	9.51751
330.859	8.93331
331.074	6.67318
331.288	8.23262
331.503	10.45257
331.717	6.34002
331.931	8.08575
332.146	8.78069
332.36	10.79
332.575	8.80839
332.789	8.39343
333.003	8.75914
333.218	8.87001
333.432	8.21891
333.646	9.34987
333.86	10.53812
334.075	10.20474
334.289	7.92103
334.503	6.54701
334.717	9.58224
334.932	8.85114
335.146	9.77014
335.36	7.41353
335.574	10.08781
335.788	9.09443
336.003	10.37671
336.217	10.66585
336.431	8.95405
336.645	7.85926
336.859	7.37788
337.073	8.72608
337.287	8.74601
337.501	6.64743
337.715	8.76677
337.929	8.81937
338.143	6.8934
338.357	8.49307
338.571	8.00241
338.785	10.19559
338.999	8.26897
339.213	8.57348
339.427	7.88032
339.641	10.63906
339.855	8.29661
340.069	7.85906
340.283	10.16203
340.497	10.97501
340.711	9.90335
340.924	9.28357
341.138	7.79634
341.352	7.57635
341.566	9.29862
341.78	7.40786
341.993	8.47155
342.207	8.18552
342.421	9.75878
342.635	9.05912
342.848	8.62417
343.062	6.2278
343.276	8.44485
343.49	11.35723
343.703	8.35749
343.917	10.46327
344.131	10.6653
344.344	8.01782
344.558	8.77783
344.771	7.6935
344.985	10.69462
345.199	11.60231
345.412	9.87812
345.626	10.21315
345.839	7.64132
346.053	8.13922
346.266	8.28092
346.48	10.02359
346.693	10.02123
346.907	9.85355
347.12	8.15355
347.334	9.21423
347.547	9.76717
347.76	9.63436
347.974	10.48652
348.187	9.41451
348.401	9.24019
348.614	8.01319
348.827	8.97931
349.041	9.74215
349.254	7.56232
349.467	8.87457
349.681	8.54843
349.894	8.11169
350.107	11.1305
350.32	11.91258
350.534	7.92569
350.747	9.25897
350.96	9.01582
351.173	8.80196
351.386	9.12675
351.6	8.9872
351.813	9.36434
352.026	9.45818
352.239	8.75764
352.452	8.93618
352.665	10.85996
352.878	9.08458
353.092	12.13893
353.305	10.36126
353.518	9.88287
353.731	8.41612
353.944	11.26105
354.157	9.4177
354.37	9.37499
354.583	7.90741
354.796	8.7041
355.009	10.94639
355.222	10.30274
355.435	10.03735
355.647	11.31661
355.86	9.62861
356.073	10.52482
356.286	9.54011
356.499	11.17615
356.712	10.92266
356.925	10.85983
357.138	11.27732
357.35	9.46624
357.563	10.04247
357.776	10.76098
357.989	11.11647
358.201	11.64079
358.414	10.90376
358.627	12.24026
358.84	10.62868
359.052	9.43573
359.265	10.08428
359.478	11.78502
359.69	8.05654
359.903	11.72401
360.116	12.01393
360.328	9.42929
360.541	11.67563
360.753	10.49057
360.966	10.74802
361.179	10.92118
361.391	10.9228
361.604	10.73299
361.816	11.17361
362.029	11.13783
362.241	11.16822
362.454	11.5577
362.666	10.88756
362.879	12.30979
363.091	11.10021
363.304	11.46861
363.516	11.36014
363.728	10.56659
363.941	12.11739
364.153	11.85692
364.366	9.71652
364.578	10.3865
364.79	11.88051
365.003	11.76556
365.215	10.89686
365.427	12.38359
365.639	12.13306
365.852	11.59044
366.064	13.12553
366.276	11.21364
366.488	11.80874
366.701	11.21542
366.913	11.04566
367.125	11.20791
367.337	10.8853
367.549	11.22555
367.762	11.21911
367.974	11.43989
368.186	11.46566
368.398	12.6053
368.61	11.89329
368.822	12.40125
369.034	11.10911
369.246	12.91147
369.458	14.16756
369.67	11.03131
369.882	13.26839
370.094	9.62058
370.306	13.3439
370.518	11.13463
370.73	11.0839
370.942	11.14004
371.154	11.97641
371.366	12.07463
371.578	12.56926
371.79	12.13104
372.002	13.1669
372.214	14.54152
372.425	12.11948
372.637	14.23891
372.849	12.74176
373.061	10.32138
373.273	13.0226
373.484	12.70028
373.696	13.14284
373.908	9.98833
374.12	13.14421
374.331	13.0769
374.543	11.34558
374.755	11.49529
374.967	12.45283
375.178	13.54402
375.39	12.26252
375.602	12.8171
375.813	11.27894
376.025	11.91184
376.236	12.97306
376.448	13.22076
376.66	12.89879
376.871	12.74102
377.083	13.86419
377.294	15.05521
377.506	12.88656
377.717	14.33182
377.929	13.56362
378.14	13.08945
378.352	13.76036
378.563	14.03526
378.775	14.75633
378.986	12.56673
379.197	13.41983
379.409	12.55193
379.62	13.88101
379.832	13.57661
380.043	13.43839
380.254	13.59305
380.466	12.16442
380.677	16.21847
380.888	15.36456
381.1	16.24338
381.311	16.15901
381.522	14.18647
381.733	16.57212
381.945	13.64832
382.156	13.20935
382.367	13.6545
382.578	16.63794
382.789	16.73648
383.001	13.14289
383.212	15.78344
383.423	15.78907
383.634	14.651
383.845	14.8601
384.056	13.6177
384.267	14.31818
384.478	14.09834
384.69	13.31241
384.901	15.06229
385.112	14.68256
385.323	16.14948
385.534	14.73519
385.745	15.38821
385.956	14.74035
386.167	13.70892
386.378	15.0406
386.588	14.15589
386.799	13.62176
387.01	13.53544
387.221	15.63377
387.432	14.92919
387.643	16.26314
387.854	14.60397
388.065	14.69588
388.275	14.94342
388.486	14.05807
388.697	14.90488
388.908	14.38677
389.119	15.93345
389.329	16.33635
389.54	15.23801
389.751	15.31927
389.962	16.23483
390.172	15.16836
390.383	14.94192
390.594	14.35884
390.804	14.4707
391.015	14.81191
391.226	15.41247
391.436	15.82423
391.647	15.92284
391.858	16.26936
392.068	14.13873
392.279	14.84093
392.489	16.00974
392.7	16.30187
392.91	15.01211
393.121	15.14452
393.331	16.26947
393.542	16.68371
393.752	16.54099
393.963	16.0314
394.173	16.35836
394.384	16.36376
394.594	15.90764
394.804	15.04249
395.015	16.01266
395.225	16.41172
395.436	15.23834
395.646	16.51589
395.856	15.92608
396.067	14.85733
396.277	16.69082
396.487	16.41758
396.697	16.68984
396.908	17.02249
397.118	16.33926
397.328	16.30867
397.538	16.64454
397.749	15.70463
397.959	17.02488
398.169	16.69385
398.379	14.98798
398.589	16.58397
398.8	16.82679
399.01	16.74892
399.22	16.1643
399.43	18.49998
399.64	16.68359
399.85	17.09748
400.06	16.87473
400.27	15.90814
400.48	16.38259
400.69	17.29866
400.9	16.15315
401.11	15.69544
401.32	17.03754
401.53	16.01675
401.74	17.70386
401.95	16.92076
402.16	16.69658
402.37	17.2304
402.58	16.22963
402.79	17.15915
403	17.09709
403.209	16.21953
403.419	17.67146
403.629	16.38618
403.839	17.98954
404.049	17.70604
404.258	16.69247
404.468	16.54847
404.678	17.94456
404.888	18.2996
405.097	17.0715
405.307	17.09108
405.517	17.65101
405.727	17.75993
405.936	16.93143
406.146	17.78735
406.356	18.68425
406.565	17.32889
406.775	17.14522
406.984	16.9915
407.194	19.19644
407.404	17.47477
407.613	17.76249
407.823	18.20645
408.032	18.76783
408.242	18.2046
408.451	17.09452
408.661	17.62388
408.87	18.86229
409.08	16.78522
409.289	17.72682
409.499	17.64263
409.708	17.6456
409.918	15.74791
410.127	17.93227
410.336	18.781
410.546	18.55233
410.755	17.58062
410.964	17.38098
411.174	16.89478
411.383	18.26815
411.592	18.20956
411.802	17.32427
412.011	18.2318
412.22	17.57423
412.429	18.86415
412.639	19.21621
412.848	18.88738
413.057	19.49309
413.266	18.67685
413.475	18.00356
413.685	18.60922
413.894	18.87785
414.103	18.94912
414.312	18.55319
414.521	17.88264
414.73	18.50054
414.939	19.60237
415.148	18.34622
415.357	18.12844
415.566	18.19384
415.776	17.68641
415.985	18.07942
416.194	19.14123
416.403	20.12768
416.611	17.57532
416.82	18.22081
417.029	18.78989
417.238	18.23584
417.447	18.15863
417.656	18.66367
417.865	18.13202
418.074	18.79566
418.283	19.01331
418.492	19.8203
418.7	19.51697
418.909	20.55908
419.118	19.13753
419.327	19.7464
419.536	19.48355
419.744	19.3389
419.953	20.91991
420.162	21.23743
420.371	20.96074
420.579	21.94917
420.788	23.00274
420.997	23.31976
421.205	23.80553
421.414	23.52167
421.623	23.93247
421.831	23.14892
422.04	23.62313
422.249	22.18991
