Data from WindowProjectSample3_Transmission__13__00013.txt Node

Date: Sun May 04 09:54:01 EDT 2025
User: jessi
Spectrometer: SR400872
Trigger mode: 0
Integration Time (sec): 5.000070E-1
Scans to average: 10
Electric dark correction enabled: true
Nonlinearity correction enabled: true
Boxcar width: 0
XAxis mode: Wavelengths
Number of Pixels in Spectrum: 3648
>>>>>Begin Spectral Data<<<<<
184.909	-5708.04452
185.132	11012.58115
185.355	-8355.26192
185.578	-54706.38977
185.801	3177.14929
186.024	-141022.64462
186.247	-802.46702
186.47	1445.47608
186.693	1614.95996
186.916	-401.35448
187.139	-2549140.09543
187.362	-2907.06646
187.585	7846.56451
187.808	1996.44283
188.031	-87.77648
188.254	4691.19662
188.476	-1754.50882
188.699	2531.74394
188.922	592.17042
189.145	-6091.60429
189.368	-3784.34869
189.591	1940.70044
189.813	-147567.59461
190.036	9726.74211
190.259	1543.10402
190.482	5859.78534
190.705	16512.39005
190.927	16466.67667
191.15	-4081.5446
191.373	2233.06246
191.595	1571.49184
191.818	16959.61759
192.041	762.50561
192.263	-7478.27357
192.486	-1617.86618
192.709	2825.62396
192.931	-3475.48997
193.154	13349.14135
193.377	2525.29699
193.599	28187.71489
193.822	2095.95048
194.044	2050.47456
194.267	1105.55324
194.489	-232.12574
194.712	3691.17782
194.934	33525.20585
195.157	-559.69439
195.379	10866.06785
195.602	1884.35187
195.824	4610.8083
196.047	6558.0755
196.269	13608.27528
196.492	-12042.7634
196.714	3580.20694
196.936	7193.40849
197.159	10832.98976
197.381	4396.30146
197.604	1670942.07107
197.826	2024.46331
198.048	2003.5883
198.271	9303.54711
198.493	2004.4601
198.715	2724.65072
198.938	8619.54764
199.16	3296.87225
199.382	9698.29294
199.604	9294.10312
199.827	1835.33347
200.049	3117.76112
200.271	21050.98282
200.493	1800.83
200.715	7521.72289
200.938	7675.68567
201.16	-3619.34456
201.382	32809.85495
201.604	4021.89449
201.826	8433.50169
202.048	4340.71121
202.27	1848.51539
202.492	6039.89086
202.715	19968.63615
202.937	3891.78516
203.159	1538.28265
203.381	2072.51974
203.603	2882.4089
203.825	-1528.4492
204.047	-23149.88293
204.269	3575.13255
204.491	7628.65665
204.713	-1737623.98334
204.935	2312.8916
205.156	3790.65964
205.378	1554.59093
205.6	37360.00911
205.822	4661.98879
206.044	3464.47438
206.266	6452.5251
206.488	1609.32352
206.71	9007.39103
206.932	1428.27799
207.153	30001.50112
207.375	16219.18837
207.597	12337.54594
207.819	39018.67522
208.041	-45662.90537
208.262	1318.34822
208.484	13750.94826
208.706	3626.53418
208.927	2526.25884
209.149	957.04972
209.371	3561.28083
209.593	851.19929
209.814	9927.51024
210.036	-498276.21356
210.258	1799.19568
210.479	2313.90486
210.701	3179.09393
210.922	-5603.03794
211.144	-3237.53688
211.366	5220.14183
211.587	2572.79242
211.809	5939.13288
212.03	-66926.21144
212.252	459.18279
212.473	891.57456
212.695	722.66427
212.916	1287.73948
213.138	543.20527
213.359	4918.94511
213.581	2808.16384
213.802	871.47053
214.024	6877.98685
214.245	-13483.9058
214.466	352.00389
214.688	3801.22235
214.909	10578.5719
215.131	3986.49323
215.352	2709.48925
215.573	11950.31742
215.795	2226.43726
216.016	1922.57471
216.237	-704648.25369
216.459	1914.56347
216.68	5762.30256
216.901	3098.86472
217.122	757.87648
217.344	3087.38579
217.565	6931.30061
217.786	3643.012
218.007	913.29489
218.228	1985.95186
218.45	-16798.46852
218.671	46944.09728
218.892	18589.41902
219.113	1638.0944
219.334	5939.37717
219.555	-7822.52098
219.776	1755.74094
219.997	4086.23196
220.219	1184.68808
220.44	1600.09231
220.661	1759.71062
220.882	5782.46898
221.103	1515.43403
221.324	7832.77024
221.545	3125.43345
221.766	3222.53042
221.987	1483.20587
222.208	967.14636
222.429	2267.57417
222.65	248.5941
222.87	795.93413
223.091	1743.39837
223.312	1055.23021
223.533	1929.74592
223.754	1567.66447
223.975	1685.50928
224.196	1032.73464
224.417	5237.5292
224.637	678.05165
224.858	90.78445
225.079	1207.64443
225.3	608.39273
225.521	2297.95575
225.741	659.29863
225.962	654.80019
226.183	147.37834
226.404	1016.16866
226.624	571.90759
226.845	589.46683
227.066	466.08211
227.286	297.09322
227.507	194.447
227.728	158.02806
227.948	273.42082
228.169	100.19015
228.389	100.51818
228.61	57.65918
228.831	81.8947
229.051	7.51161
229.272	49.91332
229.492	73.6658
229.713	23.25009
229.933	49.88886
230.154	43.24909
230.374	72.88593
230.595	57.48972
230.815	32.7401
231.036	55.79923
231.256	-11.39142
231.477	95.93778
231.697	61.22661
231.917	60.58615
232.138	79.23444
232.358	157.47971
232.579	149.9201
232.799	27.25963
233.019	135.58612
233.24	164.74865
233.46	56.70136
233.68	87.25942
233.901	62.35581
234.121	41.62178
234.341	17.0174
234.561	-2.35415
234.782	31.35566
235.002	100.26696
235.222	-0.17001
235.442	88.68418
235.662	45.97241
235.883	90.61861
236.103	76.90606
236.323	56.55637
236.543	42.82529
236.763	60.7125
236.983	61.96274
237.203	60.67498
237.423	85.72967
237.643	128.42633
237.864	111.61482
238.084	31.08003
238.304	36.75789
238.524	72.01764
238.744	60.00688
238.964	101.28
239.184	87.31575
239.404	90.22597
239.624	50.50541
239.843	84.74458
240.063	50.51891
240.283	32.89804
240.503	37.92862
240.723	34.04747
240.943	21.39143
241.163	28.00565
241.383	20.61466
241.603	9.94532
241.822	12.23837
242.042	8.77449
242.262	12.19292
242.482	13.33175
242.702	15.55131
242.921	5.40158
243.141	10.94438
243.361	10.11546
243.581	14.50596
243.8	12.23755
244.02	8.23396
244.24	15.09921
244.459	13.80968
244.679	27.77593
244.899	19.2856
245.118	21.84447
245.338	18.88719
245.558	21.08202
245.777	12.95391
245.997	14.56094
246.216	14.96535
246.436	8.56867
246.655	5.98528
246.875	4.44109
247.094	8.71477
247.314	3.19093
247.533	5.23779
247.753	6.42867
247.972	5.37137
248.192	1.9189
248.411	3.14875
248.631	5.58262
248.85	7.6576
249.07	5.92934
249.289	9.751
249.508	7.40199
249.728	11.6927
249.947	11.43308
250.166	13.77524
250.386	7.17963
250.605	9.766
250.824	17.7007
251.044	13.36315
251.263	35.58806
251.482	19.2955
251.701	15.63535
251.921	-0.25538
252.14	5.70051
252.359	6.58787
252.578	14.91076
252.798	5.89867
253.017	13.2468
253.236	7.48447
253.455	9.17815
253.674	17.82746
253.893	8.12362
254.112	12.15931
254.331	19.09917
254.551	14.77198
254.77	6.89277
254.989	21.56919
255.208	17.2042
255.427	22.73155
255.646	19.64429
255.865	32.27819
256.084	13.84296
256.303	16.4546
256.522	20.36499
256.741	4.20352
256.96	4.58796
257.179	11.80614
257.397	16.53849
257.616	8.70841
257.835	9.10389
258.054	22.70829
258.273	14.4609
258.492	16.01846
258.711	8.86908
258.93	4.14636
259.148	6.40932
259.367	6.28012
259.586	7.67847
259.805	3.30293
260.023	7.0211
260.242	5.44228
260.461	3.97357
260.68	2.22875
260.898	6.32768
261.117	2.23282
261.336	1.47697
261.554	5.55462
261.773	5.70699
261.992	1.45101
262.21	5.77322
262.429	6.75503
262.648	10.93256
262.866	12.39715
263.085	8.47276
263.303	7.52521
263.522	13.21392
263.74	14.03061
263.959	22.58281
264.178	11.51874
264.396	10.4911
264.615	7.64998
264.833	16.78938
265.051	14.66712
265.27	15.49986
265.488	16.46689
265.707	9.92956
265.925	16.28655
266.144	7.46872
266.362	8.70461
266.58	8.19221
266.799	7.24791
267.017	9.44272
267.235	7.54155
267.454	5.23312
267.672	3.16122
267.89	6.68862
268.109	6.87038
268.327	6.6335
268.545	1.46754
268.763	6.06284
268.982	3.07798
269.2	7.16687
269.418	4.59562
269.636	3.14307
269.854	7.10017
270.073	5.05131
270.291	2.82201
270.509	3.51382
270.727	6.63015
270.945	10.86068
271.163	10.69114
271.381	2.45942
271.599	4.33147
271.817	7.57591
272.036	2.78333
272.254	4.56402
272.472	3.80015
272.69	3.556
272.908	3.99305
273.126	6.50973
273.344	7.72617
273.562	2.82708
273.779	3.93742
273.997	5.79022
274.215	6.85458
274.433	4.85873
274.651	7.11364
274.869	7.32705
275.087	4.4889
275.305	6.0804
275.523	4.12674
275.74	4.65542
275.958	8.09641
276.176	12.19728
276.394	3.81047
276.612	5.15322
276.829	4.93863
277.047	4.46829
277.265	4.49446
277.483	5.72084
277.7	6.73424
277.918	5.32303
278.136	9.42691
278.353	4.66804
278.571	3.02606
278.789	7.54686
279.006	2.13661
279.224	4.18657
279.442	7.39219
279.659	5.1415
279.877	3.58542
280.094	8.55682
280.312	1.89151
280.529	5.265
280.747	1.77699
280.964	4.0053
281.182	8.46036
281.399	4.30906
281.617	5.72957
281.834	3.99306
282.052	2.98362
282.269	4.82922
282.487	3.91437
282.704	3.48685
282.921	3.47737
283.139	4.96102
283.356	6.12893
283.574	5.67272
283.791	2.8308
284.008	7.93381
284.226	4.68314
284.443	4.96922
284.66	6.20423
284.877	5.06756
285.095	3.29388
285.312	2.29512
285.529	1.56757
285.746	1.23864
285.964	3.16846
286.181	2.05246
286.398	2.91956
286.615	3.97988
286.832	3.9512
287.05	1.32365
287.267	3.04648
287.484	2.78099
287.701	4.30179
287.918	3.96383
288.135	4.27529
288.352	1.91825
288.569	2.36991
288.786	3.79988
289.003	3.12187
289.22	4.23349
289.437	2.42946
289.654	4.71708
289.871	4.59676
290.088	4.26881
290.305	3.26807
290.522	2.6537
290.739	3.07118
290.956	4.66948
291.173	5.69976
291.39	5.27799
291.607	3.59213
291.824	2.921
292.04	1.87882
292.257	4.45886
292.474	5.0306
292.691	3.2542
292.908	1.56315
293.125	2.39721
293.341	1.57028
293.558	7.58292
293.775	3.18985
293.992	3.18115
294.208	1.41418
294.425	2.15377
294.642	2.93774
294.858	3.96872
295.075	1.35533
295.292	3.14278
295.508	3.85224
295.725	5.35896
295.942	2.5757
296.158	1.82347
296.375	3.06115
296.591	2.26477
296.808	2.43172
297.024	2.80808
297.241	3.22141
297.458	3.42156
297.674	0.31717
297.891	2.79173
298.107	2.26314
298.323	1.79053
298.54	4.23399
298.756	1.98694
298.973	1.00023
299.189	4.40768
299.406	1.87865
299.622	4.44298
299.838	4.3932
300.055	4.02467
300.271	1.14893
300.487	1.59103
300.704	1.9117
300.92	1.06732
301.136	5.84167
301.353	4.28579
301.569	3.14303
301.785	3.48091
302.001	3.97855
302.218	3.61634
302.434	3.37308
302.65	1.19083
302.866	2.3964
303.083	5.92036
303.299	5.86945
303.515	2.7444
303.731	3.11666
303.947	1.01907
304.163	2.09597
304.379	3.19203
304.595	3.71674
304.812	2.16334
305.028	1.83081
305.244	2.56717
305.46	3.96199
305.676	3.96165
305.892	4.99963
306.108	3.33123
306.324	2.54911
306.54	5.73343
306.756	3.25357
306.972	3.88087
307.187	2.59656
307.403	5.05372
307.619	2.52275
307.835	4.53838
308.051	4.84286
308.267	1.49803
308.483	4.33157
308.699	3.74184
308.914	3.16631
309.13	3.15639
309.346	0.89657
309.562	1.46672
309.778	1.13947
309.993	3.57155
310.209	2.70058
310.425	1.31745
310.641	2.54718
310.856	1.50956
311.072	1.36948
311.288	2.76648
311.503	3.08585
311.719	0.83224
311.935	0.52447
312.15	3.2965
312.366	3.08729
312.581	3.59154
312.797	2.92333
313.013	3.94648
313.228	2.14104
313.444	3.02316
313.659	1.97635
313.875	3.66703
314.09	2.86072
314.306	5.16231
314.521	4.21353
314.737	3.82885
314.952	3.31993
315.168	2.98242
315.383	3.57728
315.599	2.83532
315.814	2.57285
316.029	4.12866
316.245	1.27448
316.46	1.03922
316.675	4.69043
316.891	5.83193
317.106	7.06098
317.321	3.78287
317.537	3.88795
317.752	4.09746
317.967	4.22663
318.183	1.89067
318.398	2.72669
318.613	4.4464
318.828	4.90917
319.043	4.37346
319.259	2.62152
319.474	3.5439
319.689	4.80078
319.904	0.78665
320.119	4.10486
320.334	3.60461
320.549	2.84327
320.765	4.84098
320.98	3.60424
321.195	4.48373
321.41	2.91158
321.625	4.32306
321.84	5.64141
322.055	5.51564
322.27	2.11139
322.485	1.90659
322.7	3.53608
322.915	4.68317
323.13	2.16397
323.345	5.25127
323.56	4.15722
323.775	3.89217
323.989	3.87188
324.204	3.57199
324.419	4.34407
324.634	1.24627
324.849	2.93493
325.064	6.25256
325.279	4.45641
325.493	3.8986
325.708	4.48
325.923	2.12934
326.138	2.25881
326.352	5.39831
326.567	4.60306
326.782	2.71636
326.997	2.08059
327.211	4.27884
327.426	3.67074
327.641	2.8679
327.855	1.32658
328.07	3.93708
328.285	5.51014
328.499	2.81962
328.714	3.70225
328.928	4.43421
329.143	3.32939
329.358	4.73922
329.572	4.84294
329.787	5.20675
330.001	6.86362
330.216	1.55709
330.43	5.62553
330.645	5.4276
330.859	4.52637
331.074	2.3369
331.288	3.67155
331.503	5.25798
331.717	1.89737
331.931	3.2561
332.146	3.54834
332.36	6.01805
332.575	4.02947
332.789	3.62924
333.003	3.323
333.218	4.04434
333.432	2.25871
333.646	4.41157
333.86	5.4334
334.075	5.73938
334.289	2.79247
334.503	1.92189
334.717	4.13831
334.932	3.88328
335.146	4.74009
335.36	2.74374
335.574	4.55375
335.788	4.51097
336.003	4.9923
336.217	4.74299
336.431	4.39537
336.645	2.69802
336.859	1.76196
337.073	3.11915
337.287	3.61778
337.501	2.05541
337.715	3.76114
337.929	3.94593
338.143	1.73167
338.357	3.15981
338.571	2.33819
338.785	4.12238
338.999	2.63142
339.213	2.65308
339.427	1.63712
339.641	5.05054
339.855	2.75592
340.069	2.4924
340.283	4.8706
340.497	5.55403
340.711	3.97857
340.924	3.03265
341.138	2.04536
341.352	1.62119
341.566	3.44258
341.78	1.3021
341.993	2.62842
342.207	1.86888
342.421	3.74593
342.635	3.10059
342.848	2.67403
343.062	0.69732
343.276	2.50542
343.49	6.04646
343.703	2.44501
343.917	4.38262
344.131	4.47082
344.344	2.38314
344.558	2.63883
344.771	1.98935
344.985	4.79875
345.199	5.43719
345.412	3.35589
345.626	3.77094
345.839	1.1794
346.053	2.0188
346.266	1.88975
346.48	4.14546
346.693	3.84702
346.907	3.99051
347.12	2.06096
347.334	3.49733
347.547	3.40208
347.76	3.00482
347.974	4.80307
348.187	3.88681
348.401	2.82078
348.614	2.29404
348.827	2.73829
349.041	4.04499
349.254	1.35145
349.467	3.02583
349.681	1.92346
349.894	2.4326
350.107	4.67178
350.32	5.40168
350.534	1.31456
350.747	2.87988
350.96	2.09412
351.173	2.33525
351.386	2.67845
351.6	2.92717
351.813	2.51368
352.026	3.17844
352.239	1.4816
352.452	2.49385
352.665	4.41802
352.878	2.82734
353.092	5.80122
353.305	4.02785
353.518	3.28759
353.731	2.0349
353.944	4.23338
354.157	2.58252
354.37	2.17041
354.583	1.76899
354.796	1.3969
355.009	4.43668
355.222	3.26795
355.435	3.10428
355.647	4.36261
355.86	1.97639
356.073	3.17724
356.286	2.5271
356.499	4.00868
356.712	3.64864
356.925	3.58946
357.138	4.25318
357.35	1.83842
357.563	2.51414
357.776	3.12504
357.989	2.799
358.201	3.62465
358.414	3.53414
358.627	4.47143
358.84	2.75546
359.052	1.45832
359.265	1.85092
359.478	4.0927
359.69	0.17211
359.903	3.71183
360.116	3.96994
360.328	0.99594
360.541	3.72393
360.753	2.10687
360.966	2.33215
361.179	2.51066
361.391	2.26028
361.604	1.83857
361.816	2.40648
362.029	2.1951
362.241	1.82204
362.454	2.39894
362.666	1.73834
362.879	3.24783
363.091	2.57515
363.304	2.03705
363.516	2.63809
363.728	1.3507
363.941	3.39349
364.153	2.56766
364.366	0.5121
364.578	1.50635
364.79	3.45371
365.003	2.89657
365.215	2.42051
365.427	3.30587
365.639	4.04253
365.852	3.19162
366.064	4.77415
366.276	2.58188
366.488	3.38713
366.701	2.44452
366.913	2.5894
367.125	2.74956
367.337	2.0843
367.549	2.17543
367.762	2.78051
367.974	2.8003
368.186	2.32781
368.398	3.85347
368.61	3.51526
368.822	3.56946
369.034	2.75577
369.246	3.67829
369.458	5.65779
369.67	1.71605
369.882	4.92349
370.094	0.60044
370.306	4.495
370.518	2.46534
370.73	2.25347
370.942	2.00558
371.154	2.65634
371.366	2.1426
371.578	3.31346
371.79	2.268
372.002	4.14734
372.214	4.92981
372.425	2.89557
372.637	4.53132
372.849	3.40218
373.061	0.50793
373.273	3.35147
373.484	3.34075
373.696	3.9072
373.908	0.49204
374.12	3.83389
374.331	3.39351
374.543	2.10978
374.755	1.68916
374.967	2.93051
375.178	3.78148
375.39	2.55072
375.602	2.90427
375.813	1.25381
376.025	1.73842
376.236	2.83367
376.448	3.109
376.66	2.47101
376.871	2.38715
377.083	3.65962
377.294	4.2858
377.506	2.30435
377.717	4.14478
377.929	3.00323
378.14	2.0275
378.352	3.42843
378.563	3.4056
378.775	4.27702
378.986	2.00422
379.197	3.04705
379.409	2.26737
379.62	3.71741
379.832	2.93683
380.043	2.53844
380.254	3.00491
380.466	1.64984
380.677	5.82804
380.888	5.32545
381.1	5.66276
381.311	5.64815
381.522	2.79594
381.733	6.08632
381.945	2.49204
382.156	2.90816
382.367	2.25292
382.578	5.95356
382.789	5.78997
383.001	2.36283
383.212	4.49439
383.423	4.73711
383.634	4.10689
383.845	3.62534
384.056	2.47571
384.267	3.03378
384.478	2.80617
384.69	1.63808
384.901	3.47528
385.112	3.20882
385.323	4.65906
385.534	3.08549
385.745	3.12048
385.956	3.34647
386.167	1.83297
386.378	3.3425
386.588	1.90917
386.799	2.0593
387.01	1.16411
387.221	3.74399
387.432	2.90179
387.643	4.84958
387.854	2.5518
388.065	2.55339
388.275	2.6315
388.486	2.4562
388.697	2.86646
388.908	2.60806
389.119	4.09237
389.329	4.76872
389.54	3.02074
389.751	3.27484
389.962	4.06876
390.172	3.07915
390.383	2.43706
390.594	2.12193
390.804	2.13727
391.015	2.29675
391.226	2.78078
391.436	3.35642
391.647	3.19059
391.858	3.31294
392.068	1.22682
392.279	1.76665
392.489	3.05208
392.7	3.7511
392.91	1.62622
393.121	1.96496
393.331	3.14747
393.542	4.06617
393.752	3.45606
393.963	3.06406
394.173	2.94796
394.384	3.57196
394.594	2.63122
394.804	1.65029
395.015	2.98636
395.225	3.58086
395.436	1.86756
395.646	3.44658
395.856	2.21045
396.067	1.44096
396.277	4.04469
396.487	3.27577
396.697	3.14336
396.908	3.70981
397.118	3.43562
397.328	3.11919
397.538	3.95728
397.749	2.24559
397.959	3.96434
398.169	3.6537
398.379	1.48683
398.589	3.52158
398.8	3.03872
399.01	2.91513
399.22	2.61089
399.43	5.15414
399.64	2.69617
399.85	3.44874
400.06	2.94126
400.27	2.08265
400.48	2.77478
400.69	4.43878
400.9	2.4184
401.11	2.24768
401.32	3.75291
401.53	2.46609
401.74	4.66933
401.95	3.89116
402.16	2.28063
402.37	3.18806
402.58	2.52095
402.79	3.51647
403	3.76428
403.209	2.32161
403.419	3.64696
403.629	2.36928
403.839	3.66159
404.049	3.81054
404.258	2.17363
404.468	1.93162
404.678	3.58957
404.888	3.65881
405.097	2.16342
405.307	2.68619
405.517	3.47241
405.727	3.39174
405.936	2.45521
406.146	3.17162
406.356	4.28538
406.565	2.95067
406.775	2.3867
406.984	2.58834
407.194	4.73649
407.404	3.02092
407.613	3.44463
407.823	3.80785
408.032	4.18461
408.242	4.07511
408.451	2.54895
408.661	2.91393
408.87	4.95374
409.08	2.64788
409.289	3.37893
409.499	3.29636
409.708	3.03973
409.918	1.0129
410.127	3.01463
410.336	4.55281
410.546	3.66123
410.755	2.64124
410.964	2.62896
411.174	2.16102
411.383	3.45436
411.592	3.598
411.802	2.08911
412.011	3.90095
412.22	2.95986
412.429	4.62781
412.639	4.35416
412.848	4.13623
413.057	4.53605
413.266	4.35557
413.475	3.09645
413.685	3.92648
413.894	3.93425
414.103	4.33968
414.312	3.86495
414.521	3.11576
414.73	3.03507
414.939	4.94251
415.148	3.51235
415.357	3.27412
415.566	2.6247
415.776	2.83624
415.985	2.6131
416.194	3.81054
416.403	4.67647
416.611	1.87485
416.82	2.44976
417.029	3.14866
417.238	2.41765
417.447	2.22943
417.656	2.51361
417.865	2.28342
418.074	2.61754
418.283	2.73978
418.492	3.72232
418.7	3.40314
418.909	4.20184
419.118	3.00617
419.327	3.2943
419.536	2.93043
419.744	2.321
419.953	3.68613
420.162	3.62548
420.371	2.43294
420.579	2.41938
420.788	3.51651
420.997	3.57499
421.205	3.49968
421.414	3.29109
421.623	3.27597
421.831	2.72828
422.04	3.6838
422.249	2.67444
422.457	3.38473
422.666	2.71347
422.874	3.77371
423.083	3.69463
423.291	3.61534
423.5	3.33569
423.708	3.52541
423.917	3.98198
424.125	3.39114
424.334	3.00942
424.542	5.08014
424.751	4.09521
424.959	3.90665
425.167	4.35105
425.376	4.11492
425.584	3.36426
425.793	3.81644
426.001	2.66144
426.209	3.99488
426.418	2.88311
426.626	3.16501
426.834	2.81974
427.042	3.52589
