Data from WindowProjectSample_Transmission__21__00021.txt Node

Date: Sat May 03 15:15:52 EDT 2025
User: jessi
Spectrometer: SR400872
Trigger mode: 0
Integration Time (sec): 5.000010E-1
Scans to average: 6
Electric dark correction enabled: true
Nonlinearity correction enabled: true
Boxcar width: 0
XAxis mode: Wavelengths
Number of Pixels in Spectrum: 3648
>>>>>Begin Spectral Data<<<<<
184.909	17600.4155
185.132	2687.72888
185.355	23091.04885
185.578	-8170.23469
185.801	393.51402
186.024	-1440.70883
186.247	829.16452
186.47	1994.60748
186.693	-366.33615
186.916	-3069.9917
187.139	-2644.89944
187.362	1661.49884
187.585	2914.62778
187.808	-3689.87743
188.031	-807.10934
188.254	-1345.38892
188.476	-803.54858
188.699	2505.46675
188.922	-1093.44449
189.145	-9977.48964
189.368	-333.06755
189.591	-1227.21705
189.813	-1888.69832
190.036	1262.05512
190.259	1796.90603
190.482	593.1477
190.705	10919.74222
190.927	-995.13149
191.15	3658.99958
191.373	2185.67395
191.595	-2609.12302
191.818	2610.75644
192.041	-383.67984
192.263	2688.81753
192.486	1936.0908
192.709	-5513.26831
192.931	2817.34301
193.154	-6206.24672
193.377	196699.24119
193.599	1518.8235
193.822	1885.36361
194.044	-2122.57236
194.267	502.20536
194.489	417.55645
194.712	1443.76071
194.934	3433.46517
195.157	-15826.28827
195.379	742.19036
195.602	2179.10817
195.824	1976.21587
196.047	2413.60748
196.269	2997.28459
196.492	3636.93996
196.714	2730.47173
196.936	1252.76928
197.159	1477.26491
197.381	-2384.37117
197.604	-1031.33357
197.826	7051.61339
198.048	3540.98708
198.271	4203.38249
198.493	2135.0317
198.715	-5904.41286
198.938	-652.00127
199.16	1864.97172
199.382	1414.00685
199.604	-670.55614
199.827	9865.84553
200.049	981.31801
200.271	-3116.85572
200.493	-53748.75075
200.715	2300.22744
200.938	7025.4375
201.16	-7176.29082
201.382	-2872.8776
201.604	-2125.07676
201.826	6612.70283
202.048	926.36256
202.27	-17768.35805
202.492	4829.02945
202.715	-1160.73455
202.937	4677.45756
203.159	-2414.98907
203.381	915.13918
203.603	-3598.75199
203.825	-3068.81803
204.047	3216.4944
204.269	-2042.08365
204.491	2330.6457
204.713	1935.64238
204.935	15756.06337
205.156	1716.42157
205.378	-8734.51708
205.6	-4215.76582
205.822	9313.19617
206.044	-708.54284
206.266	3868.54018
206.488	1111.84413
206.71	30617.07103
206.932	2469.28857
207.153	-5024.10779
207.375	-1842.12615
207.597	8776.94857
207.819	4380.09748
208.041	2309.03642
208.262	-3023.13406
208.484	-1292.79275
208.706	-3201.03213
208.927	28695.66552
209.149	1074.43598
209.371	-6556.86864
209.593	1448.97516
209.814	5442.45655
210.036	-3446.28568
210.258	-5741.26244
210.479	-1413.93526
210.701	1035.58926
210.922	6741.52265
211.144	-1328.75195
211.366	-5912.50294
211.587	-560.26206
211.809	9619.54757
212.03	-1391.76554
212.252	-1616.65171
212.473	798.16228
212.695	-2175.25272
212.916	2936.70903
213.138	3753.51256
213.359	-1858.78898
213.581	6418.69781
213.802	-1887.90164
214.024	18598.42962
214.245	-3581.46495
214.466	-329.48613
214.688	1580.98145
214.909	927.0399
215.131	-96914.59716
215.352	1535.05815
215.573	2519.86764
215.795	2913.65026
216.016	4289.6559
216.237	-628.97372
216.459	7097.85538
216.68	109017.7343
216.901	-84805.90052
217.122	1793.32103
217.344	6307.5163
217.565	-59415.10596
217.786	1545.65568
218.007	2172.33713
218.228	-1307.04276
218.45	-1183.23143
218.671	-1230.86632
218.892	1206.58716
219.113	-18502.29266
219.334	-442.93331
219.555	-5426.55222
219.776	1610.13116
219.997	3654.29238
220.219	1205.86241
220.44	2271.75666
220.661	-3202.7634
220.882	3376.64511
221.103	-1331.47358
221.324	975.2236
221.545	2284.10789
221.766	-6436.05994
221.987	4257.32585
222.208	-1694.82823
222.429	3483.91346
222.65	-112.12171
222.87	-570.6729
223.091	7797.67382
223.312	2630.95404
223.533	6920.71254
223.754	1866.83093
223.975	1515.3063
224.196	-10795.0292
224.417	1091.39727
224.637	892.22937
224.858	-988.40188
225.079	6843.85779
225.3	615.80046
225.521	2050.69037
225.741	1571.08158
225.962	790.84291
226.183	310.81844
226.404	699.5414
226.624	653.17167
226.845	374.72973
227.066	453.66906
227.286	199.93477
227.507	93.78741
227.728	68.74715
227.948	125.04066
228.169	39.78663
228.389	47.31149
228.61	27.05594
228.831	38.25251
229.051	3.42635
229.272	22.56456
229.492	31.19397
229.713	10.6488
229.933	23.18875
230.154	19.60368
230.374	33.39699
230.595	24.09681
230.815	14.1775
231.036	22.63924
231.256	-6.02854
231.477	44.56268
231.697	25.89547
231.917	24.6464
232.138	37.51393
232.358	76.7091
232.579	63.9325
232.799	13.83275
233.019	71.11847
233.24	80.09739
233.46	25.83905
233.68	43.52414
233.901	32.64669
234.121	19.21769
234.341	6.38192
234.561	-3.18476
234.782	15.74395
235.002	48.52363
235.222	-1.84361
235.442	40.39
235.662	20.25863
235.883	45.20521
236.103	38.1463
236.323	24.7124
236.543	19.43928
236.763	31.41338
236.983	27.41842
237.203	29.75645
237.423	44.92458
237.643	64.78651
237.864	53.56865
238.084	14.05796
238.304	21.62337
238.524	33.45348
238.744	29.86628
238.964	47.62033
239.184	43.53986
239.404	45.651
239.624	24.07041
239.843	39.50255
240.063	23.65502
240.283	15.78639
240.503	17.81992
240.723	17.24066
240.943	10.05769
241.163	13.92892
241.383	10.36132
241.603	5.22026
241.822	5.96865
242.042	4.85507
242.262	6.06698
242.482	7.41203
242.702	8.38933
242.921	2.84046
243.141	5.87851
243.361	4.79922
243.581	7.65436
243.8	6.34528
244.02	3.95201
244.24	7.76816
244.459	7.1942
244.679	14.9562
244.899	9.63993
245.118	10.63477
245.338	9.08909
245.558	10.77552
245.777	6.72227
245.997	7.29855
246.216	7.54727
246.436	4.22505
246.655	3.32421
246.875	2.44617
247.094	5.09589
247.314	1.57999
247.533	2.92864
247.753	3.60965
247.972	2.72414
248.192	1.19993
248.411	1.97571
248.631	3.27322
248.85	3.97506
249.07	2.99721
249.289	5.53403
249.508	3.69055
249.728	6.58541
249.947	7.01113
250.166	7.42959
250.386	3.90506
250.605	5.79732
250.824	8.35136
251.044	6.89442
251.263	20.92689
251.482	10.40759
251.701	9.78912
251.921	0.08726
252.14	3.25302
252.359	3.53603
252.578	8.64101
252.798	3.27918
253.017	7.37649
253.236	3.56022
253.455	5.29653
253.674	9.76979
253.893	4.75172
254.112	6.37397
254.331	9.29891
254.551	7.65233
254.77	3.65295
254.989	11.5
255.208	10.11585
255.427	12.58249
255.646	10.344
255.865	19.21545
256.084	6.47464
256.303	9.44469
256.522	11.73067
256.741	2.15635
256.96	3.11029
257.179	7.7599
257.397	8.62235
257.616	5.25793
257.835	4.31448
258.054	12.125
258.273	7.55907
258.492	9.4274
258.711	5.51047
258.93	2.36166
259.148	3.3834
259.367	3.28937
259.586	4.76092
259.805	2.01039
260.023	4.16849
260.242	3.37822
260.461	2.44041
260.68	1.25782
260.898	3.7955
261.117	1.30792
261.336	0.99403
261.554	3.32705
261.773	2.99569
261.992	0.61123
262.21	3.07077
262.429	3.77053
262.648	5.78708
262.866	7.52263
263.085	5.01636
263.303	4.21756
263.522	7.89672
263.74	7.80202
263.959	12.74359
264.178	6.71063
264.396	5.79484
264.615	3.78356
264.833	9.17877
265.051	8.24448
265.27	8.07717
265.488	9.29956
265.707	6.04647
265.925	9.18397
266.144	3.80658
266.362	5.31331
266.58	5.5659
266.799	3.89701
267.017	5.22222
267.235	4.93288
267.454	2.60167
267.672	2.13144
267.89	3.75635
268.109	3.98911
268.327	3.97246
268.545	0.98842
268.763	4.06939
268.982	1.55868
269.2	4.37727
269.418	2.81544
269.636	2.35139
269.854	3.17755
270.073	2.93522
270.291	1.68068
270.509	1.65676
270.727	3.78803
270.945	6.16832
271.163	6.41096
271.381	1.64113
271.599	2.50979
271.817	4.67418
272.036	1.59457
272.254	2.81554
272.472	2.19181
272.69	2.09887
272.908	2.22169
273.126	3.77636
273.344	4.59599
273.562	1.9095
273.779	2.3072
273.997	3.44536
274.215	4.00142
274.433	2.59949
274.651	4.07378
274.869	4.28493
275.087	2.63287
275.305	3.56874
275.523	2.22563
275.74	3.1022
275.958	4.95488
276.176	7.24874
276.394	2.17793
276.612	2.96434
276.829	2.51795
277.047	2.11473
277.265	2.56505
277.483	3.41697
277.7	3.89009
277.918	3.26513
278.136	5.8634
278.353	2.95931
278.571	1.22146
278.789	4.58468
279.006	1.21465
279.224	2.27046
279.442	4.74677
279.659	3.3089
279.877	2.14441
280.094	4.88656
280.312	1.02499
280.529	3.11291
280.747	0.74707
280.964	2.42878
281.182	5.2936
281.399	2.44943
281.617	3.48309
281.834	2.35314
282.052	1.90005
282.269	2.58585
282.487	2.43841
282.704	1.73902
282.921	2.06796
283.139	2.87339
283.356	3.70812
283.574	3.40116
283.791	1.82271
284.008	4.90317
284.226	2.59765
284.443	2.80895
284.66	3.55839
284.877	3.08562
285.095	1.87809
285.312	1.49955
285.529	1.10019
285.746	0.73706
285.964	1.86005
286.181	1.18984
286.398	1.83321
286.615	2.34234
286.832	2.38778
287.05	0.76856
287.267	1.65003
287.484	1.89389
287.701	2.56679
287.918	2.41601
288.135	2.73856
288.352	1.34738
288.569	1.44121
288.786	2.10716
289.003	1.75688
289.22	2.55556
289.437	1.56198
289.654	2.78358
289.871	2.87976
290.088	2.73368
290.305	2.07527
290.522	1.51847
290.739	2.05387
290.956	2.78839
291.173	3.39556
291.39	3.07301
291.607	2.31905
291.824	1.68173
292.04	1.08256
292.257	2.6586
292.474	2.87931
292.691	1.92311
292.908	0.9689
293.125	1.62898
293.341	0.98293
293.558	4.77676
293.775	1.88451
293.992	2.03399
294.208	0.69641
294.425	1.21417
294.642	1.62618
294.858	2.54424
295.075	0.59626
295.292	1.85706
295.508	2.20013
295.725	3.5139
295.942	1.61797
296.158	1.2889
296.375	1.9631
296.591	1.51103
296.808	1.73565
297.024	1.85178
297.241	2.06898
297.458	2.27507
297.674	0.09762
297.891	1.72793
298.107	1.45021
298.323	1.01388
298.54	2.6513
298.756	1.24923
298.973	0.5399
299.189	2.82837
299.406	1.23442
299.622	2.67674
299.838	2.80237
300.055	2.52942
300.271	0.84519
300.487	1.0106
300.704	1.37288
300.92	0.6886
301.136	3.67295
301.353	2.86885
301.569	2.00825
301.785	2.32504
302.001	2.81637
302.218	2.26422
302.434	2.24259
302.65	1.07575
302.866	1.64521
303.083	3.90782
303.299	3.75804
303.515	2.12089
303.731	2.34096
303.947	0.92973
304.163	1.49833
304.379	2.25497
304.595	2.64423
304.812	1.45132
305.028	1.40615
305.244	1.78792
305.46	2.6622
305.676	2.82448
305.892	3.47285
306.108	2.56586
306.324	1.85888
306.54	3.81913
306.756	2.45606
306.972	2.45438
307.187	2.12538
307.403	3.32793
307.619	1.68476
307.835	3.07264
308.051	3.50623
308.267	0.89085
308.483	3.14597
308.699	2.57916
308.914	2.23405
309.13	2.14168
309.346	0.92807
309.562	1.42986
309.778	0.97276
309.993	2.70183
310.209	2.20092
310.425	1.09043
310.641	2.0083
310.856	1.49408
311.072	1.33548
311.288	2.18804
311.503	2.58976
311.719	0.88552
311.935	0.93433
312.15	2.70866
312.366	2.36236
312.581	2.91945
312.797	2.45738
313.013	2.92425
313.228	1.93368
313.444	2.29018
313.659	1.74538
313.875	2.80643
314.09	2.11348
314.306	3.4737
314.521	3.06115
314.737	3.00896
314.952	2.42863
315.168	2.31302
315.383	2.9572
315.599	2.04415
315.814	1.91626
316.029	2.99263
316.245	1.27872
316.46	1.00347
316.675	3.40803
316.891	4.05633
317.106	5.08964
317.321	3.03783
317.537	2.84093
317.752	3.08084
317.967	3.02351
318.183	1.62516
318.398	2.02716
318.613	3.29099
318.828	3.68618
319.043	3.15283
319.259	2.08932
319.474	2.64385
319.689	3.214
319.904	1.08688
320.119	3.25736
320.334	2.56617
320.549	2.28093
320.765	3.39583
320.98	2.96931
321.195	3.24397
321.41	2.4116
321.625	3.0729
321.84	3.99559
322.055	4.07056
322.27	1.99779
322.485	1.56925
322.7	2.55387
322.915	3.4261
323.13	1.80001
323.345	3.9252
323.56	3.48283
323.775	3.12886
323.989	2.99782
324.204	2.55604
324.419	3.29737
324.634	1.44368
324.849	2.38646
325.064	4.90541
325.279	3.45549
325.493	3.1741
325.708	3.43218
325.923	1.85753
326.138	2.14806
326.352	3.90197
326.567	3.41709
326.782	2.06438
326.997	2.06861
327.211	2.94192
327.426	2.84985
327.641	2.49859
327.855	1.25981
328.07	3.18987
328.285	4.29203
328.499	2.39375
328.714	3.22549
328.928	3.24761
329.143	2.95606
329.358	3.62456
329.572	3.55209
329.787	3.92975
330.001	5.0062
330.216	1.36676
330.43	4.69413
330.645	3.98628
330.859	3.53813
331.074	2.00922
331.288	2.88747
331.503	4.17689
331.717	1.79159
331.931	2.70234
332.146	3.00021
332.36	4.54224
332.575	3.33086
332.789	2.86449
333.003	3.01109
333.218	3.35453
333.432	2.67038
333.646	3.49991
333.86	4.289
334.075	4.44971
334.289	2.51489
334.503	1.95085
334.717	3.52339
334.932	3.39771
335.146	3.94158
335.36	2.30256
335.574	3.46571
335.788	2.96393
336.003	3.98263
336.217	3.77776
336.431	3.4388
336.645	2.4686
336.859	2.0147
337.073	2.63243
337.287	3.18143
337.501	2.03109
337.715	3.39579
337.929	3.61899
338.143	2.21871
338.357	2.87818
338.571	2.51677
338.785	3.60395
338.999	2.56427
339.213	2.77495
339.427	1.98148
339.641	4.11415
339.855	2.86495
340.069	2.53959
340.283	4.04435
340.497	4.55455
340.711	3.48626
340.924	2.95858
341.138	2.1415
341.352	1.96914
341.566	3.26612
341.78	1.85539
341.993	2.58203
342.207	2.34082
342.421	3.41061
342.635	3.29335
342.848	2.77403
343.062	1.18726
343.276	2.7077
343.49	4.85756
343.703	2.59934
343.917	3.84021
344.131	4.00048
344.344	2.41535
344.558	2.6801
344.771	2.38914
344.985	4.32858
345.199	4.67689
345.412	3.55365
345.626	3.5813
345.839	1.98872
346.053	2.32633
346.266	2.35703
346.48	3.77792
346.693	3.46877
346.907	3.81548
347.12	2.41297
347.334	3.29512
347.547	3.63342
347.76	3.09393
347.974	4.14741
348.187	3.36622
348.401	3.0108
348.614	2.74832
348.827	3.02853
349.041	3.56309
349.254	1.94853
349.467	2.84838
349.681	2.36581
349.894	2.55955
350.107	4.41648
350.32	4.84235
350.534	2.14168
350.747	2.96416
350.96	2.40777
351.173	2.76055
351.386	3.22914
351.6	2.85593
351.813	2.80129
352.026	3.33887
352.239	2.36824
352.452	2.87662
352.665	4.04863
352.878	2.92299
353.092	5.08118
353.305	3.81281
353.518	3.52762
353.731	2.56467
353.944	4.48021
354.157	2.74456
354.37	2.69609
354.583	2.34358
354.796	2.28554
355.009	4.09639
355.222	3.57432
355.435	3.38274
355.647	4.29648
355.86	2.66901
356.073	3.35643
356.286	2.88663
356.499	4.1354
356.712	4.07274
356.925	3.79587
357.138	4.32203
357.35	2.77639
357.563	3.1051
357.776	3.66161
357.989	3.40589
358.201	3.96119
358.414	3.70785
358.627	4.52275
358.84	3.34082
359.052	2.76761
359.265	2.74861
359.478	4.37936
359.69	1.34973
359.903	4.13864
360.116	4.31904
360.328	2.34682
360.541	4.06329
360.753	2.91505
360.966	3.23902
361.179	3.39098
361.391	3.34626
361.604	3.05325
361.816	3.37904
362.029	3.38735
362.241	3.22414
362.454	3.55492
362.666	3.02207
362.879	4.04586
363.091	3.51395
363.304	3.30393
363.516	3.50658
363.728	2.85837
363.941	3.93541
364.153	3.47667
364.366	2.08575
364.578	2.77542
364.79	3.89592
365.003	3.51722
365.215	3.32383
365.427	3.97732
365.639	4.45972
365.852	3.84211
366.064	5.0014
366.276	3.2182
366.488	3.89062
366.701	3.25898
366.913	3.26979
367.125	3.44714
367.337	3.16596
367.549	3.22821
367.762	3.49239
367.974	3.50138
368.186	3.29015
368.398	4.29249
368.61	4.16437
368.822	4.08634
369.034	3.49143
369.246	4.21764
369.458	5.55736
369.67	3.08848
369.882	4.92196
370.094	2.20614
370.306	4.75553
370.518	3.18996
370.73	2.97745
370.942	3.12082
371.154	3.52011
371.366	3.37643
371.578	4.08351
371.79	3.58258
372.002	4.65432
372.214	5.1996
372.425	3.72424
372.637	4.79249
372.849	3.89422
373.061	2.02102
373.273	4.10562
373.484	3.9559
373.696	4.36297
373.908	2.14167
374.12	4.23351
374.331	4.20964
374.543	2.94756
374.755	2.88518
374.967	3.81403
375.178	4.43961
375.39	3.39228
375.602	3.96974
375.813	2.88408
376.025	2.88259
376.236	3.71634
376.448	3.92303
376.66	3.4655
376.871	3.62877
377.083	4.61456
377.294	4.9731
377.506	3.45865
377.717	4.79595
377.929	4.14569
378.14	3.36051
378.352	4.27292
378.563	4.47656
378.775	4.84559
378.986	3.31975
379.197	4.00405
379.409	3.56839
379.62	4.34713
379.832	4.04103
380.043	3.6226
380.254	4.06602
380.466	2.86941
380.677	5.84897
380.888	5.40124
381.1	5.92423
381.311	5.82418
381.522	4.16611
381.733	5.88364
381.945	3.85573
382.156	3.75235
382.367	3.61402
382.578	5.99037
382.789	6.1828
383.001	3.55748
383.212	5.16828
383.423	5.04941
383.634	4.72664
383.845	4.37109
384.056	3.86815
384.267	3.99834
384.478	3.91465
384.69	3.23717
384.901	4.46885
385.112	4.23844
385.323	5.29084
385.534	4.36654
385.745	4.48896
385.956	4.34934
386.167	3.3825
386.378	4.50535
386.588	3.50108
386.799	3.4436
387.01	2.91081
387.221	4.81061
387.432	4.25555
387.643	5.37625
387.854	3.98967
388.065	3.83509
388.275	4.01603
388.486	3.81863
388.697	4.20036
388.908	3.92035
389.119	5.0137
389.329	5.22495
389.54	4.38237
389.751	4.54721
389.962	5.08188
390.172	4.14143
390.383	4.09393
390.594	3.67719
390.804	3.62545
391.015	3.77651
391.226	4.36586
391.436	4.75467
391.647	4.68538
391.858	4.73819
392.068	3.2844
392.279	3.49823
392.489	4.54501
392.7	4.92099
392.91	3.74348
393.121	3.70185
393.331	4.77787
393.542	5.11447
393.752	4.79861
393.963	4.53394
394.173	4.44095
394.384	4.83222
394.594	4.4222
394.804	3.57134
395.015	4.39622
395.225	4.6064
395.436	3.67642
395.646	4.75106
395.856	4.06216
396.067	3.42899
396.277	4.945
396.487	4.59374
396.697	4.43097
396.908	4.98642
397.118	4.83776
397.328	4.3155
397.538	4.82101
397.749	3.97138
397.959	4.93845
398.169	4.70498
398.379	3.38955
398.589	4.60543
398.8	4.49679
399.01	4.4681
399.22	4.05809
399.43	5.97329
399.64	4.11829
399.85	4.8137
400.06	4.51112
400.27	4.06359
400.48	4.62254
400.69	5.25032
400.9	4.14481
401.11	3.76913
401.32	4.88305
401.53	4.16442
401.74	5.45111
401.95	4.77927
402.16	4.16152
402.37	4.53053
402.58	4.0914
402.79	4.7473
403	4.88997
403.209	4.00116
403.419	5.18785
403.629	4.08455
403.839	5.07897
404.049	5.06203
404.258	4.13232
404.468	4.17607
404.678	5.12967
404.888	5.30448
405.097	4.43122
405.307	4.63506
405.517	5.08687
405.727	4.83574
405.936	4.4795
406.146	4.76463
406.356	5.60196
406.565	4.48446
406.775	4.25885
406.984	4.15445
407.194	5.90912
407.404	4.6126
407.613	4.82525
407.823	5.04882
408.032	5.28649
408.242	5.16916
408.451	4.12941
408.661	4.53333
408.87	5.74321
409.08	4.08801
409.289	5.00955
409.499	4.81027
409.708	4.67417
409.918	3.32337
410.127	4.87218
410.336	5.76584
410.546	5.31804
410.755	4.35948
410.964	4.5004
411.174	4.09138
411.383	5.2608
411.592	4.96106
411.802	4.14932
412.011	5.31551
412.22	4.63143
412.429	5.87894
412.639	5.80122
412.848	5.3882
413.057	5.88876
413.266	5.34384
413.475	4.74782
413.685	5.32083
413.894	5.29984
414.103	5.40164
414.312	5.30526
414.521	4.58771
414.73	4.9664
414.939	6.12237
415.148	5.23636
415.357	4.94512
415.566	4.80168
415.776	4.62292
415.985	4.6215
416.194	5.59585
416.403	6.06102
416.611	4.27109
416.82	4.69154
417.029	5.1533
417.238	4.8756
417.447	4.5565
417.656	5.04891
417.865	4.85849
418.074	5.27952
418.283	5.70518
418.492	6.51984
418.7	6.36532
418.909	7.65847
419.118	6.52697
419.327	7.01514
419.536	6.69349
419.744	6.78878
419.953	7.97246
420.162	8.2333
420.371	7.22582
420.579	7.7198
420.788	8.67072
420.997	8.80577
421.205	8.96214
421.414	8.69706
421.623	8.82087
421.831	8.35633
422.04	9.04338
422.249	8.07638
422.457	8.51218
422.666	7.65393
422.874	8.67607
423.083	8.83634
423.291	8.62886
423.5	8.57274
423.708	8.88579
423.917	9.30241
424.125	8.78238
424.334	8.49295
424.542	10.46946
424.751	9.79159
424.959	9.34408
425.167	9.68928
425.376	9.41485
425.584	8.32913
425.793	8.41306
426.001	7.31299
426.209	7.78353
426.418	6.69568
426.626	6.19162
426.834	5.9422
427.042	5.95008
427.251	5.72206
427.459	6.48131
427.667	6.06125
