Data from WindowProjectSample_Transmission__56__00056.txt Node

Date: Sat May 03 16:54:04 EDT 2025
User: jessi
Spectrometer: SR400872
Trigger mode: 0
Integration Time (sec): 5.000010E-1
Scans to average: 6
Electric dark correction enabled: true
Nonlinearity correction enabled: true
Boxcar width: 0
XAxis mode: Wavelengths
Number of Pixels in Spectrum: 3648
>>>>>Begin Spectral Data<<<<<
184.909	182932.88831
185.132	1636.16282
185.355	-1994.16561
185.578	3342.33812
185.801	-602.68806
186.024	5736.62229
186.247	1109.03728
186.47	825.29401
186.693	-322.07397
186.916	155.6996
187.139	10028.83074
187.362	3503.67261
187.585	2991.53297
187.808	-1282.50502
188.031	-86.00975
188.254	7926.85542
188.476	474.94159
188.699	-4082.18853
188.922	-275.55774
189.145	-4179.39394
189.368	-394.24645
189.591	-915.3143
189.813	-1930.35954
190.036	4925.19551
190.259	3138.06973
190.482	2236.71254
190.705	8395.55076
190.927	-1592.57371
191.15	-1642.42254
191.373	4645.85582
191.595	-1616.99382
191.818	9227.69825
192.041	-273.89856
192.263	-2252.76812
192.486	-847.79393
192.709	8636.38208
192.931	-2497.60972
193.154	-1982.35164
193.377	4643.06996
193.599	5790.4269
193.822	-1602.15188
194.044	-1890.96512
194.267	579.36925
194.489	390.9931
194.712	2080.9007
194.934	3430.11065
195.157	-8072.0107
195.379	1849.23162
195.602	5127.25945
195.824	5157.33476
196.047	-9176.96804
196.269	-10824.92432
196.492	-1108.17461
196.714	-5067.49795
196.936	4362.11764
197.159	-2610.67137
197.381	-542.38186
197.604	1225.16613
197.826	-3191.81372
198.048	-1270.92311
198.271	-11834.67684
198.493	9468.91221
198.715	-2341.26544
198.938	-598.60081
199.16	-3353.59064
199.382	1752.78548
199.604	-1389.95332
199.827	-1227.11357
200.049	-4131.9792
200.271	2464.8161
200.493	-23890.33004
200.715	4860.59383
200.938	12668.02787
201.16	-230416.07794
201.382	-4710.07118
201.604	-1019.34002
201.826	-6542.91501
202.048	-6992.14785
202.27	-4827.08281
202.492	-3662.45137
202.715	-1293.9955
202.937	-3418.69621
203.159	1004.09877
203.381	-89139.53429
203.603	-1005.29221
203.825	-1489.01567
204.047	2423.58001
204.269	-874.23557
204.491	6258.92314
204.713	-8376.36102
204.935	39147.82025
205.156	1815.62939
205.378	-7264.26832
205.6	-1593.7123
205.822	6296.55214
206.044	-228.03643
206.266	-2118.5004
206.488	751.90117
206.71	-506557.87462
206.932	-15456.16356
207.153	11571.676
207.375	-2126.5474
207.597	14869.90061
207.819	1641.27035
208.041	6059.5615
208.262	665.33836
208.484	-959.29171
208.706	-922.91854
208.927	10149.64455
209.149	-7658.05012
209.371	-2655.20618
209.593	-2466.45584
209.814	-3976.98814
210.036	2601.67568
210.258	-641.0987
210.479	1889.32988
210.701	728.41619
210.922	4114.82407
211.144	-1605.42569
211.366	5754.28886
211.587	-471.77937
211.809	-3520.25545
212.03	-2325.94767
212.252	-439.23797
212.473	2697.72902
212.695	-690.18227
212.916	-850.45018
213.138	726.31435
213.359	-1219.30994
213.581	-3099.82597
213.802	-1110.71011
214.024	10363.96863
214.245	-913.51076
214.466	-208.82723
214.688	-3491.82733
214.909	-713.46525
215.131	8130.54401
215.352	-1039.92702
215.573	-244889.88887
215.795	4284.5058
216.016	-3843.11905
216.237	-486.91529
216.459	-11632.85314
216.68	-1502.75186
216.901	-1647.71589
217.122	1768.95088
217.344	-8501.32113
217.565	-1605.89503
217.786	22473.92151
218.007	878.55261
218.228	-3846.66576
218.45	-5443.34103
218.671	-1388.7736
218.892	817.06448
219.113	1684.5239
219.334	145.29664
219.555	-6017.46699
219.776	32619.46612
219.997	-6662.33379
220.219	-8306.56377
220.44	-4761.86426
220.661	-1208.50706
220.882	11955.89858
221.103	-801.92135
221.324	2364.59067
221.545	-6697.10518
221.766	-1488.08477
221.987	-416.50529
222.208	1789.19014
222.429	6551.89699
222.65	-102.65703
222.87	-580.61528
223.091	42236.13947
223.312	723.18558
223.533	-1988.74075
223.754	3498.77239
223.975	1651.13215
224.196	-749.44552
224.417	-27485.78322
224.637	-2029.41005
224.858	258.3008
225.079	3467.05627
225.3	1556.58756
225.521	3589.65066
225.741	-2072.26307
225.962	1542.81448
226.183	869.99693
226.404	1842.38575
226.624	1793.98468
226.845	1313.40166
227.066	2311.25842
227.286	657.0237
227.507	407.11076
227.728	371.48306
227.948	528.46469
228.169	128.79778
228.389	127.11011
228.61	54.52262
228.831	83.19496
229.051	7.79792
229.272	45.68095
229.492	61.07568
229.713	20.9017
229.933	47.89564
230.154	37.87333
230.374	68.94539
230.595	51.82412
230.815	34.96402
231.036	53.21168
231.256	-10.27217
231.477	104.43156
231.697	59.9212
231.917	69.9672
232.138	79.0477
232.358	174.71862
232.579	164.65927
232.799	30.8671
233.019	160.51442
233.24	210.43004
233.46	61.03525
233.68	109.26269
233.901	94.78047
234.121	48.04823
234.341	17.16486
234.561	-5.63941
234.782	31.03128
235.002	115.74518
235.222	1.20497
235.442	88.10319
235.662	44.00351
235.883	101.34074
236.103	85.35991
236.323	57.68479
236.543	49.56481
236.763	68.60224
236.983	64.61243
237.203	73.4182
237.423	106.45662
237.643	148.47366
237.864	127.51968
238.084	28.88319
238.304	51.75545
238.524	84.20968
238.744	66.4378
238.964	106.30115
239.184	101.68714
239.404	102.3637
239.624	46.41559
239.843	93.85913
240.063	55.29592
240.283	32.51878
240.503	34.9933
240.723	33.42174
240.943	18.25328
241.163	26.41649
241.383	18.28659
241.603	7.16735
241.822	10.15945
242.042	8.97839
242.262	11.10211
242.482	12.24628
242.702	14.13804
242.921	4.86215
243.141	9.95999
243.361	8.56513
243.581	12.75533
243.8	11.57105
244.02	6.79841
244.24	14.64743
244.459	14.70158
244.679	25.30509
244.899	15.62651
245.118	19.77549
245.338	17.03673
245.558	20.1954
245.777	11.82703
245.997	13.21766
246.216	13.33249
246.436	7.26641
246.655	5.12713
246.875	4.20267
247.094	7.60598
247.314	2.60253
247.533	4.44636
247.753	5.88297
247.972	4.22568
248.192	1.54827
248.411	2.83938
248.631	4.88143
248.85	6.35816
249.07	4.75259
249.289	8.24298
249.508	5.8656
249.728	10.37751
249.947	10.01064
250.166	11.43706
250.386	6.2138
250.605	9.20789
250.824	15.63084
251.044	10.97882
251.263	36.66739
251.482	18.83869
251.701	16.91041
251.921	0.30579
252.14	5.52307
252.359	6.06183
252.578	13.3581
252.798	5.09403
253.017	13.39732
253.236	6.10639
253.455	7.7845
253.674	15.96347
253.893	7.08139
254.112	10.68413
254.331	15.80666
254.551	13.36527
254.77	5.49899
254.989	20.72325
255.208	17.86273
255.427	21.42287
255.646	18.98895
255.865	30.5387
256.084	13.05841
256.303	14.87025
256.522	20.62791
256.741	3.52998
256.96	4.34122
257.179	14.50795
257.397	15.94676
257.616	7.43379
257.835	8.27286
258.054	20.30805
258.273	13.77753
258.492	16.42874
258.711	8.79481
258.93	3.49141
259.148	5.35673
259.367	5.467
259.586	7.06252
259.805	3.15535
260.023	6.56231
260.242	5.15657
260.461	3.41988
260.68	1.92816
260.898	6.12413
261.117	2.12004
261.336	1.07147
261.554	5.01996
261.773	5.11486
261.992	0.39854
262.21	5.19752
262.429	5.77137
262.648	10.08949
262.866	12.11561
263.085	7.21886
263.303	7.17972
263.522	11.54823
263.74	12.69552
263.959	20.88923
264.178	10.51017
264.396	8.96668
264.615	6.48329
264.833	16.45516
265.051	13.77472
265.27	13.5047
265.488	15.49908
265.707	9.64122
265.925	15.22472
266.144	6.47752
266.362	8.82492
266.58	9.12509
266.799	6.68649
267.017	8.1438
267.235	7.54475
267.454	4.70393
267.672	3.12474
267.89	5.75811
268.109	6.46319
268.327	5.88481
268.545	1.79785
268.763	6.18168
268.982	2.72074
269.2	6.8072
269.418	4.01305
269.636	2.97664
269.854	5.75518
270.073	5.13329
270.291	2.48479
270.509	2.90385
270.727	6.23528
270.945	9.69565
271.163	9.56305
271.381	2.47499
271.599	3.48511
271.817	7.09405
272.036	2.30569
272.254	4.37172
272.472	3.62094
272.69	3.36226
272.908	3.3967
273.126	6.11908
273.344	7.21032
273.562	2.58543
273.779	3.18305
273.997	5.17867
274.215	5.69668
274.433	3.98067
274.651	6.42606
274.869	6.23159
275.087	3.64589
275.305	5.85657
275.523	3.26039
275.74	4.44479
275.958	7.32091
276.176	10.99231
276.394	3.51387
276.612	4.3026
276.829	4.2713
277.047	3.28349
277.265	4.04214
277.483	4.91942
277.7	5.63265
277.918	4.92908
278.136	8.49163
278.353	4.06454
278.571	2.06359
278.789	6.92804
279.006	1.09364
279.224	4.09194
279.442	7.34375
279.659	4.72799
279.877	3.22758
280.094	7.75938
280.312	1.88064
280.529	4.33545
280.747	1.41332
280.964	4.03885
281.182	8.25113
281.399	3.68937
281.617	5.27465
281.834	3.37633
282.052	3.20221
282.269	4.27923
282.487	3.70458
282.704	2.71543
282.921	3.23549
283.139	4.58836
283.356	5.61441
283.574	4.80937
283.791	2.64582
284.008	7.5544
284.226	3.71713
284.443	4.49705
284.66	5.63889
284.877	4.65727
285.095	2.99509
285.312	2.01079
285.529	1.3621
285.746	0.99364
285.964	2.7551
286.181	1.68743
286.398	2.78646
286.615	3.49619
286.832	3.45609
287.05	1.27458
287.267	2.27639
287.484	2.85939
287.701	3.83074
287.918	3.39696
288.135	3.65876
288.352	1.74591
288.569	1.92604
288.786	3.51587
289.003	2.47207
289.22	3.97927
289.437	2.47117
289.654	4.06627
289.871	4.33416
290.088	4.07892
290.305	2.80505
290.522	2.54317
290.739	3.23221
290.956	4.24469
291.173	5.2045
291.39	4.76275
291.607	3.16539
291.824	2.02154
292.04	1.5893
292.257	3.80351
292.474	4.50859
292.691	2.77921
292.908	1.47677
293.125	2.7962
293.341	1.40757
293.558	6.95165
293.775	2.82488
293.992	2.96516
294.208	1.29417
294.425	2.09667
294.642	2.88753
294.858	4.03046
295.075	1.37351
295.292	3.0218
295.508	4.08915
295.725	6.02589
295.942	4.30481
296.158	3.94833
296.375	5.4867
296.591	4.37275
296.808	5.56945
297.024	6.31499
297.241	6.7969
297.458	7.22604
297.674	4.58991
297.891	6.95091
298.107	7.21254
298.323	6.02547
298.54	9.13115
298.756	7.11082
298.973	6.30386
299.189	9.8744
299.406	7.97485
299.622	9.53615
299.838	10.24007
300.055	9.64104
300.271	7.90062
300.487	7.8792
300.704	8.91842
300.92	8.27862
301.136	13.19642
301.353	11.12915
301.569	10.11225
301.785	10.60205
302.001	11.23241
302.218	10.72539
302.434	11.42168
302.65	9.55742
302.866	10.53723
303.083	14.04459
303.299	14.56187
303.515	11.6163
303.731	12.62061
303.947	10.48867
304.163	11.50871
304.379	12.53609
304.595	12.76558
304.812	11.53059
305.028	11.61837
305.244	11.64581
305.46	13.24359
305.676	13.97442
305.892	14.43777
306.108	13.48341
306.324	12.42773
306.54	15.01606
306.756	13.21218
306.972	12.79661
307.187	13.50393
307.403	14.52341
307.619	12.2273
307.835	14.00781
308.051	15.03616
308.267	11.68483
308.483	15.68488
308.699	14.3133
308.914	14.2926
309.13	13.81642
309.346	12.74852
309.562	13.31833
309.778	12.81793
309.993	14.73303
310.209	15.07727
310.425	13.07642
310.641	14.73763
310.856	13.83952
311.072	13.97355
311.288	14.97486
311.503	15.56516
311.719	13.05993
311.935	13.55814
312.15	15.93534
312.366	15.7523
312.581	15.71361
312.797	15.40371
313.013	15.97173
313.228	14.39891
313.444	14.16705
313.659	13.7267
313.875	15.34862
314.09	14.49775
314.306	16.06685
314.521	15.8773
314.737	15.93017
314.952	14.85453
315.168	15.00662
315.383	15.42711
315.599	13.72486
315.814	14.83041
316.029	15.35115
316.245	14.08323
316.46	12.2294
316.675	16.00197
316.891	17.08628
317.106	18.60664
317.321	15.04958
317.537	15.73212
317.752	16.2496
317.967	15.83651
318.183	13.92853
318.398	14.43432
318.613	16.33774
318.828	16.91809
319.043	15.7315
319.259	14.49965
319.474	15.09628
319.689	16.70975
319.904	12.74573
320.119	16.55075
320.334	15.03347
320.549	15.05744
320.765	16.38139
320.98	15.50868
321.195	15.28638
321.41	15.58781
321.625	15.6451
321.84	17.25558
322.055	16.58294
322.27	14.41428
322.485	13.69504
322.7	16.10694
322.915	16.59869
323.13	15.73119
323.345	18.14986
323.56	17.48668
323.775	17.06687
323.989	17.17418
324.204	16.16606
324.419	17.80267
324.634	14.87316
324.849	16.30882
325.064	19.70973
325.279	18.15568
325.493	16.96564
325.708	17.44796
325.923	15.29917
326.138	16.4517
326.352	18.33497
326.567	17.3511
326.782	15.72646
326.997	16.42936
327.211	17.13022
327.426	16.31183
327.641	16.25681
327.855	14.42413
328.07	18.19663
328.285	19.32876
328.499	15.87928
328.714	16.52181
328.928	16.78738
329.143	16.84637
329.358	18.03351
329.572	17.5231
329.787	18.88656
330.001	19.85629
330.216	14.42699
330.43	19.65122
330.645	17.76794
330.859	17.64262
331.074	15.23417
331.288	16.74741
331.503	19.08371
331.717	15.32076
331.931	16.45282
332.146	17.46914
332.36	19.55473
332.575	17.56706
332.789	16.97059
333.003	17.45286
333.218	17.70242
333.432	17.39976
333.646	18.72744
333.86	19.81398
334.075	19.19466
334.289	16.93103
334.503	15.42495
334.717	18.60702
334.932	16.97396
335.146	17.59264
335.36	15.28607
335.574	17.21743
335.788	16.87029
336.003	17.8223
336.217	18.46816
336.431	17.65255
336.645	16.58629
336.859	16.33621
337.073	18.1298
337.287	19.01028
337.501	16.79385
337.715	19.15402
337.929	19.33493
338.143	17.3402
338.357	18.19392
338.571	17.82541
338.785	19.31496
338.999	17.625
339.213	17.75796
339.427	17.10553
339.641	19.3512
339.855	17.04517
340.069	16.39011
340.283	19.03266
340.497	19.98348
340.711	18.70629
340.924	18.40382
341.138	17.58549
341.352	16.68789
341.566	18.41985
341.78	16.85251
341.993	17.33944
342.207	17.74698
342.421	19.15983
342.635	18.30848
342.848	18.24505
343.062	15.23637
343.276	18.01777
343.49	20.79682
343.703	17.60824
343.917	19.95432
344.131	20.14122
344.344	17.76697
344.558	18.43272
344.771	17.27708
344.985	20.19647
345.199	20.84264
345.412	19.14241
345.626	19.70421
345.839	17.18624
346.053	17.56316
346.266	17.89762
346.48	19.57511
346.693	19.88464
346.907	19.27845
347.12	17.69469
347.334	18.9001
347.547	19.44311
347.76	18.6454
347.974	19.98281
348.187	18.9703
348.401	18.77939
348.614	17.56798
348.827	18.98896
349.041	19.61905
349.254	17.19145
349.467	18.14719
349.681	17.9756
349.894	17.77058
350.107	20.65141
350.32	21.56596
350.534	17.43526
350.747	18.96498
350.96	18.17512
351.173	18.48176
351.386	18.55147
351.6	18.14255
351.813	19.02114
352.026	18.93306
352.239	18.20806
352.452	18.55293
352.665	20.86493
352.878	18.85329
353.092	22.24924
353.305	20.22438
353.518	19.78279
353.731	18.07444
353.944	20.75773
354.157	18.88016
354.37	19.27824
354.583	17.9374
354.796	18.51742
355.009	20.98447
355.222	20.21632
355.435	19.89578
355.647	21.15045
355.86	19.36046
356.073	19.9429
356.286	19.05444
356.499	21.26241
356.712	21.07924
356.925	20.91105
357.138	21.1941
357.35	19.50206
357.563	19.80988
357.776	20.80397
357.989	20.70709
358.201	21.07066
358.414	20.70225
358.627	22.09425
358.84	20.17936
359.052	18.97021
359.265	19.50374
359.478	21.75119
359.69	17.97109
359.903	21.53483
360.116	21.99163
360.328	19.40566
360.541	21.63229
360.753	20.68229
360.966	20.8798
361.179	21.32899
361.391	20.94434
361.604	20.64393
361.816	20.93285
362.029	20.89523
362.241	20.6416
362.454	21.20094
362.666	20.31835
362.879	22.00729
363.091	20.97189
363.304	20.6384
363.516	20.69343
363.728	19.95366
363.941	21.45118
364.153	21.41526
364.366	19.37044
364.578	19.95464
364.79	21.40594
365.003	21.58412
365.215	20.4413
365.427	22.09605
365.639	22.02107
365.852	21.19056
366.064	22.70251
366.276	20.82938
366.488	21.49318
366.701	21.39271
366.913	20.70459
367.125	20.7764
367.337	20.3381
367.549	20.81964
367.762	21.17542
367.974	20.74926
368.186	21.14375
368.398	21.82342
368.61	21.54797
368.822	22.02625
369.034	20.81674
369.246	22.06097
369.458	24.51565
369.67	20.68458
369.882	22.82906
370.094	18.98123
370.306	22.77421
370.518	21.19447
370.73	21.00731
370.942	21.02764
371.154	21.59575
371.366	21.5647
371.578	22.62685
371.79	21.67792
372.002	22.73838
372.214	24.36184
372.425	21.14677
372.637	23.28186
372.849	21.99797
373.061	19.87395
373.273	22.25725
373.484	22.45248
373.696	22.69172
373.908	19.65951
374.12	22.51727
374.331	22.72741
374.543	21.02287
374.755	20.97427
374.967	21.94842
375.178	23.40342
375.39	21.86227
375.602	22.2874
375.813	20.88584
376.025	21.29164
376.236	22.37052
376.448	22.63197
376.66	22.71435
376.871	22.56661
377.083	23.65906
377.294	24.46409
377.506	22.2454
377.717	23.63928
377.929	23.20157
378.14	22.51407
378.352	22.99852
378.563	23.59771
378.775	24.06151
378.986	21.70022
379.197	22.67063
379.409	21.97657
379.62	23.16437
379.832	23.06132
380.043	22.69273
380.254	23.3933
380.466	21.68508
380.677	25.64014
380.888	24.69628
381.1	25.74695
381.311	25.20777
381.522	23.65264
381.733	25.59422
381.945	23.25994
382.156	22.70544
382.367	22.65657
382.578	26.21566
382.789	26.08312
383.001	22.56129
383.212	25.45627
383.423	25.3622
383.634	24.4439
383.845	24.17426
384.056	23.1917
384.267	23.45307
384.478	23.86394
384.69	22.64301
384.901	24.37562
385.112	23.84624
385.323	25.56438
385.534	24.02292
385.745	24.26307
385.956	23.82646
386.167	23.20553
386.378	24.38331
386.588	23.41553
386.799	23.07999
387.01	22.71511
387.221	24.83931
387.432	24.06593
387.643	25.47665
387.854	24.06769
388.065	23.77154
388.275	23.61212
388.486	23.34955
388.697	24.12117
388.908	23.29068
389.119	25.34549
389.329	25.38073
389.54	24.50233
389.751	24.63455
389.962	25.29077
390.172	24.10366
390.383	24.13177
390.594	23.60359
390.804	23.89736
391.015	23.98474
391.226	24.71802
391.436	25.36492
391.647	25.06275
391.858	25.2824
392.068	23.07363
392.279	23.8684
392.489	25.3804
392.7	25.21624
392.91	24.27028
393.121	24.01346
393.331	25.45134
393.542	26.37981
393.752	25.65847
393.963	25.49528
394.173	25.19625
394.384	25.41452
394.594	25.28803
394.804	23.92282
395.015	24.78324
395.225	25.38054
395.436	23.98376
395.646	25.39397
395.856	25.04035
396.067	23.7626
396.277	25.79058
396.487	25.15058
396.697	25.38558
396.908	25.71205
397.118	25.81643
397.328	25.40754
397.538	25.95179
397.749	24.86117
397.959	26.1243
398.169	25.63332
398.379	24.18707
398.589	25.41359
398.8	26.06365
399.01	25.70473
399.22	25.09321
399.43	27.11902
399.64	25.50547
399.85	25.90835
400.06	25.61411
400.27	24.67768
400.48	25.4949
400.69	26.34439
400.9	25.06108
401.11	24.46805
401.32	26.0189
401.53	24.88342
401.74	26.99793
401.95	26.15503
402.16	25.44369
402.37	26.00041
402.58	25.21416
402.79	26.33339
403	26.56785
403.209	25.38565
403.419	26.84603
403.629	25.55096
403.839	27.1715
404.049	26.95284
404.258	26.17011
404.468	25.68206
404.678	26.84896
404.888	27.22595
405.097	26.29674
405.307	26.21518
405.517	26.50377
405.727	26.87996
405.936	25.86395
406.146	26.35538
406.356	27.28419
406.565	26.18806
406.775	25.81969
406.984	25.70112
407.194	27.93464
407.404	26.39547
407.613	26.54508
407.823	27.09493
408.032	27.31923
408.242	26.82056
408.451	25.93139
408.661	26.28741
408.87	28.03311
409.08	25.95075
409.289	26.89537
409.499	27.0788
409.708	26.41157
409.918	24.54706
410.127	27.11478
410.336	27.8663
410.546	27.42265
410.755	26.35248
410.964	26.30122
411.174	25.56979
411.383	27.02834
411.592	26.84051
411.802	25.87747
412.011	27.24934
412.22	26.54156
412.429	27.5414
412.639	27.87644
412.848	27.69317
413.057	28.31597
413.266	27.68922
413.475	26.8168
413.685	27.66508
413.894	27.92561
414.103	27.68589
414.312	27.59905
414.521	26.59869
414.73	27.27641
414.939	29.01081
415.148	27.72751
415.357	27.60933
415.566	27.30138
415.776	27.47722
415.985	26.99953
416.194	28.05823
416.403	29.36412
416.611	26.77319
416.82	27.53832
417.029	28.16067
417.238	27.56389
417.447	27.49323
417.656	27.71422
417.865	27.49041
418.074	28.09767
418.283	27.96337
418.492	29.08826
418.7	28.84082
418.909	29.71986
419.118	28.4857
419.327	28.86021
419.536	28.68981
