Data from WindowProjectSample_Transmission__24__00024__09550460387222137.txt Node

Date: Mon May 05 17:23:16 EDT 2025
User: jessi
Spectrometer: SR400872
Trigger mode: 0
Integration Time (sec): 5.000010E-1
Scans to average: 20
Electric dark correction enabled: true
Nonlinearity correction enabled: true
Boxcar width: 0
XAxis mode: Wavelengths
Number of Pixels in Spectrum: 3648
>>>>>Begin Spectral Data<<<<<
184.909	19868.249
185.132	-4958.17593
185.355	-2960.01025
185.578	-17343.62862
185.801	1703.33031
186.024	10045.98703
186.247	-1720.50352
186.47	1045.67467
186.693	331.10579
186.916	273.45625
187.139	-3669.14926
187.362	3300.6411
187.585	3930.28913
187.808	3352.52047
188.031	14.02929
188.254	-51844.88968
188.476	-565.70237
188.699	5972.08818
188.922	617.06776
189.145	-15115.50088
189.368	-654.49997
189.591	-1245.10576
189.813	3147.86641
190.036	-50654.20942
190.259	-828.46808
190.482	-4302.99388
190.705	6858.58356
190.927	-2478.23743
191.15	13452.41006
191.373	3053.80101
191.595	-8876.26719
191.818	-4082.0122
192.041	-6116.02622
192.263	-3370.97981
192.486	-819.44169
192.709	-3931.16723
192.931	7871.83961
193.154	-27926.77612
193.377	-2770.72973
193.599	-2422.52991
193.822	-9419.24121
194.044	-1973.68294
194.267	1152.85287
194.489	290.3809
194.712	-41489.56678
194.934	-30820.84959
195.157	1108.24098
195.379	1300.73173
195.602	-6357.21161
195.824	-1263.79855
196.047	-8142.62562
196.269	2653.73362
196.492	-6217.98673
196.714	28253.41433
196.936	-8490.6599
197.159	-1196.81096
197.381	1110.27052
197.604	418.32113
197.826	12115.36433
198.048	-10573.33265
198.271	-2669.49407
198.493	7135.43562
198.715	2241.07295
198.938	-532.34333
199.16	6919.1371
199.382	-97877.7016
199.604	2564.92785
199.827	-1079.38909
200.049	-2843.12751
200.271	14302.87745
200.493	1202.14279
200.715	-36732.1142
200.938	-5819.07911
201.16	-3881.3968
201.382	19807.77387
201.604	2228.73064
201.826	2233.97236
202.048	-1847.14896
202.27	-1921.92916
202.492	-35860.85485
202.715	2766.70648
202.937	-4493.99919
203.159	-6160.9991
203.381	1432.26515
203.603	6205.29517
203.825	6330.08709
204.047	2206.4585
204.269	-2660.96677
204.491	2099.21455
204.713	5925.43577
204.935	-487215.28054
205.156	1203.25173
205.378	-2857.41126
205.6	1553.26648
205.822	149848.8665
206.044	-970.85043
206.266	1509.5617
206.488	4848.77714
206.71	-5209.9578
206.932	1092.89546
207.153	12090.24193
207.375	-6662.75374
207.597	-36462.10778
207.819	-2702.55061
208.041	2375.49338
208.262	462.48839
208.484	687.94342
208.706	-784.64192
208.927	-795.40325
209.149	563.35605
209.371	-2828.48937
209.593	-255.92341
209.814	-805.30793
210.036	645.69299
210.258	-624.70533
210.479	1773.25051
210.701	1594.04911
210.922	3264.69487
211.144	-3803.64491
211.366	1947.12369
211.587	7562.20034
211.809	-7933.36958
212.03	2317.16751
212.252	388.98343
212.473	2044.53507
212.695	-6537.51247
212.916	2828.92607
213.138	-637.85737
213.359	3705.99998
213.581	5198.88656
213.802	-855.55623
214.024	1124.93168
214.245	1961.65219
214.466	2267.40182
214.688	-2999.29812
214.909	-1144.16879
215.131	-1701.75747
215.352	-2978.36699
215.573	14680.67802
215.795	4911.89548
216.016	5204.86891
216.237	838.64726
216.459	3310.56508
216.68	1715.35947
216.901	4892.21888
217.122	-2707.53121
217.344	-11056.70178
217.565	3341.55317
217.786	8820.72516
218.007	14464.19011
218.228	-617.76294
218.45	5529.83314
218.671	723.76298
218.892	37570.10365
219.113	1566.90039
219.334	-189.7493
219.555	10174.18746
219.776	2808.94356
219.997	22306.51946
220.219	2680.92133
220.44	-10083.34289
220.661	467.18369
220.882	1442.88414
221.103	-1083.4291
221.324	2206.03594
221.545	2238.53091
221.766	-8888.82834
221.987	875.52004
222.208	1655.88032
222.429	4240.55175
222.65	204.06259
222.87	18020.52311
223.091	685.73292
223.312	569.09279
223.533	1332.65902
223.754	1405.43774
223.975	1361.05444
224.196	1983.20162
224.417	1320.5706
224.637	519.5558
224.858	15.89367
225.079	1070.69101
225.3	654.58598
225.521	3702.50956
225.741	478.76957
225.962	531.58426
226.183	126.43594
226.404	660.20155
226.624	402.94935
226.845	651.5214
227.066	394.7764
227.286	248.18227
227.507	112.36588
227.728	114.35977
227.948	232.75752
228.169	74.0755
228.389	81.35864
228.61	44.1005
228.831	62.19245
229.051	0.99146
229.272	36.53134
229.492	54.03233
229.713	12.70433
229.933	34.77024
230.154	29.60003
230.374	51.6525
230.595	38.74095
230.815	22.88663
231.036	38.21602
231.256	-8.74621
231.477	65.91763
231.697	35.069
231.917	37.72662
232.138	53.07872
232.358	110.28611
232.579	99.42446
232.799	18.89314
233.019	98.64001
233.24	109.77978
233.46	41.29073
233.68	61.29659
233.901	43.45866
234.121	29.37427
234.341	13.21449
234.561	-2.84572
234.782	18.83204
235.002	65.87384
235.222	-4.2166
235.442	63.85923
235.662	30.81089
235.883	61.65822
236.103	47.77933
236.323	35.68746
236.543	28.74182
236.763	38.49816
236.983	43.19205
237.203	41.06154
237.423	58.17385
237.643	84.40424
237.864	70.67157
238.084	18.61584
238.304	23.83764
238.524	43.68953
238.744	38.44604
238.964	71.30173
239.184	57.50662
239.404	62.45289
239.624	33.05704
239.843	59.03837
240.063	35.3081
240.283	21.44835
240.503	25.90767
240.723	24.48688
240.943	13.36825
241.163	18.49397
241.383	13.13597
241.603	7.70608
241.822	9.82519
242.042	5.67261
242.262	8.3733
242.482	9.69238
242.702	10.7918
242.921	2.85096
243.141	6.42703
243.361	6.2353
243.581	9.33382
243.8	7.3752
244.02	5.03755
244.24	8.69758
244.459	9.41483
244.679	17.1319
244.899	11.27039
245.118	12.64272
245.338	13.00572
245.558	13.38788
245.777	8.46565
245.997	10.23939
246.216	10.27719
246.436	5.80179
246.655	4.48844
246.875	3.41468
247.094	6.13777
247.314	1.97276
247.533	3.46897
247.753	4.2371
247.972	3.21034
248.192	1.12442
248.411	1.94382
248.631	3.55307
248.85	4.47024
249.07	3.75313
249.289	5.61081
249.508	4.97934
249.728	6.649
249.947	6.75084
250.166	8.90666
250.386	4.05297
250.605	7.03141
250.824	10.63323
251.044	7.40851
251.263	28.56895
251.482	14.23356
251.701	11.50517
251.921	-0.25081
252.14	3.36214
252.359	3.88781
252.578	9.71506
252.798	3.51622
253.017	8.80199
253.236	4.10983
253.455	5.77851
253.674	10.03445
253.893	4.8266
254.112	7.28571
254.331	10.65627
254.551	8.35142
254.77	3.52158
254.989	13.15461
255.208	9.24994
255.427	15.77097
255.646	11.51625
255.865	21.03536
256.084	9.54217
256.303	9.74305
256.522	13.70402
256.741	3.09004
256.96	2.89007
257.179	8.10188
257.397	10.44775
257.616	5.98593
257.835	5.69079
258.054	15.02293
258.273	10.07963
258.492	10.6959
258.711	6.4227
258.93	3.16461
259.148	4.55209
259.367	4.47087
259.586	5.51743
259.805	2.23606
260.023	5.05136
260.242	3.79084
260.461	2.68949
260.68	1.27189
260.898	4.32202
261.117	1.22475
261.336	0.97057
261.554	3.39923
261.773	3.3442
261.992	0.82811
262.21	3.25423
262.429	3.52764
262.648	6.91799
262.866	7.95872
263.085	5.52975
263.303	4.77567
263.522	8.66983
263.74	8.57891
263.959	14.87414
264.178	6.89733
264.396	6.47344
264.615	4.64244
264.833	10.3793
265.051	8.42744
265.27	10.12097
265.488	10.70629
265.707	6.29924
265.925	10.45733
266.144	4.48349
266.362	5.41429
266.58	5.19415
266.799	4.99739
267.017	5.85508
267.235	5.15857
267.454	3.11301
267.672	1.77623
267.89	4.00868
268.109	4.41114
268.327	4.13152
268.545	0.986
268.763	4.25464
268.982	1.48135
269.2	4.21262
269.418	3.14196
269.636	1.8758
269.854	4.75272
270.073	3.03763
270.291	1.94959
270.509	1.83299
270.727	4.2069
270.945	7.06214
271.163	6.80426
271.381	1.46518
271.599	3.17536
271.817	5.25092
272.036	1.67686
272.254	3.01506
272.472	2.38507
272.69	2.46388
272.908	2.32231
273.126	4.32364
273.344	5.02593
273.562	1.72922
273.779	2.58554
273.997	3.59826
274.215	3.96503
274.433	2.83494
274.651	4.26629
274.869	4.56463
275.087	2.70495
275.305	4.00361
275.523	2.35658
275.74	2.57643
275.958	5.4536
276.176	7.93597
276.394	2.43315
276.612	3.22866
276.829	3.36884
277.047	2.58235
277.265	2.9357
277.483	3.25332
277.7	4.24212
277.918	3.48099
278.136	6.21393
278.353	2.81084
278.571	1.72979
278.789	4.24878
279.006	0.94692
279.224	2.90483
279.442	4.90454
279.659	3.46207
279.877	2.36875
280.094	5.83166
280.312	1.01905
280.529	3.0586
280.747	0.95704
280.964	2.56739
281.182	6.02104
281.399	2.63938
281.617	3.60803
281.834	2.44432
282.052	2.02755
282.269	3.06925
282.487	2.3894
282.704	2.11858
282.921	2.20724
283.139	3.19992
283.356	3.81534
283.574	3.64635
283.791	1.91196
284.008	5.57269
284.226	2.97003
284.443	3.1995
284.66	4.36369
284.877	3.31812
285.095	2.10965
285.312	1.59024
285.529	0.87666
285.746	0.79283
285.964	2.05944
286.181	1.38063
286.398	1.88827
286.615	2.55826
286.832	2.48423
287.05	0.60695
287.267	1.82433
287.484	1.72245
287.701	2.58995
287.918	2.49726
288.135	2.60646
288.352	1.22181
288.569	1.35749
288.786	2.30392
289.003	2.01114
289.22	3.01131
289.437	1.60756
289.654	2.74928
289.871	2.95509
290.088	2.77557
290.305	2.27596
290.522	1.64632
290.739	1.95989
290.956	3.07365
291.173	3.50141
291.39	3.36385
291.607	2.27468
291.824	1.72722
292.04	1.28744
292.257	2.87803
292.474	3.16372
292.691	1.98001
292.908	0.99138
293.125	1.6369
293.341	1.08776
293.558	4.84256
293.775	1.86817
293.992	2.08596
294.208	0.86671
294.425	1.44277
294.642	1.92706
294.858	2.31416
295.075	0.78184
295.292	2.02919
295.508	2.43569
295.725	4.15897
295.942	1.98055
296.158	1.51793
296.375	2.3167
296.591	1.83701
296.808	2.0134
297.024	2.40018
297.241	2.59663
297.458	2.80186
297.674	0.62782
297.891	2.24817
298.107	2.03844
298.323	1.68764
298.54	3.6407
298.756	1.84219
298.973	1.22333
299.189	3.73766
299.406	1.91006
299.622	3.32058
299.838	3.45545
300.055	3.3967
300.271	1.39074
300.487	1.81827
300.704	2.06712
300.92	1.56209
301.136	5.06322
301.353	3.29704
301.569	2.54439
301.785	3.0016
302.001	3.42424
302.218	3.00486
302.434	3.21235
302.65	1.60444
302.866	2.25858
303.083	4.96019
303.299	4.50883
303.515	2.9531
303.731	3.27413
303.947	1.74503
304.163	2.29477
304.379	3.05631
304.595	3.35109
304.812	2.24276
305.028	2.35292
305.244	2.66364
305.46	3.49285
305.676	3.67414
305.892	4.14299
306.108	3.43965
306.324	2.58362
306.54	4.70359
306.756	3.34249
306.972	3.32516
307.187	3.00073
307.403	4.32541
307.619	2.46927
307.835	4.00292
308.051	4.29976
308.267	2.08869
308.483	4.08165
308.699	3.47602
308.914	3.06657
309.13	2.92078
309.346	1.85657
309.562	2.14393
309.778	1.7449
309.993	3.47105
310.209	3.17789
310.425	2.11769
310.641	2.92246
310.856	2.28551
311.072	2.20546
311.288	2.96185
311.503	3.25964
311.719	1.55508
311.935	1.66328
312.15	3.59173
312.366	3.27136
312.581	3.51169
312.797	3.17521
313.013	3.85207
313.228	2.5723
313.444	2.88624
313.659	2.55127
313.875	3.45844
314.09	2.93142
314.306	4.43668
314.521	3.87085
314.737	3.78413
314.952	3.06605
315.168	2.99147
315.383	3.34685
315.599	2.76157
315.814	2.72225
316.029	3.75177
316.245	2.02321
316.46	1.67881
316.675	4.12053
316.891	4.62041
317.106	5.66752
317.321	3.20945
317.537	3.77979
317.752	3.95916
317.967	3.79577
318.183	2.21
318.398	2.71443
318.613	3.86389
318.828	4.36291
319.043	3.83906
319.259	2.9185
319.474	3.30828
319.689	4.28694
319.904	1.74596
320.119	3.88924
320.334	3.40386
320.549	2.93156
320.765	4.13625
320.98	3.45777
321.195	3.55136
321.41	3.14012
321.625	3.86175
321.84	4.79225
322.055	4.61007
322.27	2.63895
322.485	2.30479
322.7	3.32806
322.915	3.94219
323.13	2.66917
323.345	4.57944
323.56	4.23337
323.775	3.82799
323.989	3.51983
324.204	3.38629
324.419	4.13946
324.634	2.18894
324.849	3.05587
325.064	6.30782
325.279	4.09343
325.493	3.58352
325.708	4.02379
325.923	2.48542
326.138	2.68739
326.352	4.74857
326.567	4.07967
326.782	2.79454
326.997	2.67987
327.211	3.6955
327.426	3.41627
327.641	2.903
327.855	1.97627
328.07	3.58417
328.285	4.87719
328.499	2.7975
328.714	3.41795
328.928	3.6801
329.143	3.00925
329.358	4.14683
329.572	4.15498
329.787	4.5475
330.001	5.50844
330.216	2.18476
330.43	5.09586
330.645	4.68182
330.859	3.94966
331.074	2.67456
331.288	3.41842
331.503	4.6069
331.717	2.4041
331.931	3.5719
332.146	3.54772
332.36	4.97155
332.575	3.53705
332.789	3.55086
333.003	3.58664
333.218	3.6746
333.432	2.7936
333.646	4.29367
333.86	4.8134
334.075	4.79791
334.289	2.81503
334.503	2.40923
334.717	3.64413
334.932	3.78182
335.146	4.10935
335.36	2.87547
335.574	4.06544
335.788	3.68904
336.003	4.12089
336.217	3.97107
336.431	3.81996
336.645	2.88504
336.859	2.42651
337.073	3.3163
337.287	3.73058
337.501	2.33596
337.715	3.75271
337.929	4.13319
338.143	2.52668
338.357	3.36704
338.571	2.8191
338.785	4.01506
338.999	3.04368
339.213	2.99696
339.427	2.30646
339.641	4.68379
339.855	3.197
340.069	2.69237
340.283	4.10033
340.497	5.03271
340.711	3.93577
340.924	3.44805
341.138	2.54542
341.352	2.4047
341.566	3.60601
341.78	2.27185
341.993	3.05895
342.207	2.78866
342.421	3.63477
342.635	3.32874
342.848	3.19208
343.062	1.62743
343.276	2.83311
343.49	5.02199
343.703	2.81155
343.917	4.44386
344.131	4.43066
344.344	2.85755
344.558	3.1418
344.771	2.52121
344.985	4.84868
345.199	4.86371
345.412	3.78211
345.626	3.90153
345.839	2.26403
346.053	2.58153
346.266	2.72612
346.48	3.95301
346.693	3.85557
346.907	3.61888
347.12	2.82592
347.334	3.71054
347.547	3.71235
347.76	3.42619
347.974	4.45959
348.187	3.6868
348.401	3.23166
348.614	2.8651
348.827	3.33653
349.041	3.76263
349.254	2.21655
349.467	3.15482
349.681	2.61971
349.894	2.99701
350.107	4.50334
350.32	4.97433
350.534	2.44003
350.747	3.26873
350.96	2.84357
351.173	3.02022
351.386	3.25004
351.6	2.96451
351.813	3.1512
352.026	3.28302
352.239	2.64953
352.452	3.26412
352.665	4.42624
352.878	3.49441
353.092	5.16959
353.305	4.13124
353.518	3.69777
353.731	2.74554
353.944	4.36321
354.157	3.24178
354.37	3.07138
354.583	2.78987
354.796	2.44556
355.009	4.23282
355.222	3.9239
355.435	3.60884
355.647	4.3619
355.86	2.98283
356.073	3.74963
356.286	3.20938
356.499	4.27673
356.712	3.97942
356.925	4.21026
357.138	4.32656
357.35	3.04372
357.563	3.44535
357.776	3.75634
357.989	3.61373
358.201	4.03414
358.414	4.01842
358.627	4.71303
358.84	3.60883
359.052	2.85396
359.265	3.20674
359.478	4.49868
359.69	1.92283
359.903	4.30222
360.116	4.56075
360.328	2.6256
360.541	4.40375
360.753	3.19027
360.966	3.58847
361.179	3.72938
361.391	3.52915
361.604	3.37657
361.816	3.67528
362.029	3.63195
362.241	3.42136
362.454	3.72347
362.666	3.30113
362.879	4.26364
363.091	3.6763
363.304	3.47612
363.516	3.77799
363.728	3.21973
363.941	4.31996
364.153	3.95041
364.366	2.49389
364.578	3.19996
364.79	4.15907
365.003	4.02659
365.215	3.54724
365.427	4.27941
365.639	4.722
365.852	4.00035
366.064	5.57318
366.276	3.82462
366.488	4.15421
366.701	3.65631
366.913	3.92875
367.125	3.86669
367.337	3.41351
367.549	3.65726
367.762	4.1607
367.974	3.98967
368.186	3.78966
368.398	4.65273
368.61	4.47746
368.822	4.50757
369.034	4.01587
369.246	4.63164
369.458	6.31383
369.67	3.57923
369.882	5.40711
370.094	2.89929
370.306	5.28403
370.518	4.0316
370.73	3.80777
370.942	3.85607
371.154	4.18989
371.366	3.9931
371.578	4.54996
371.79	4.13366
372.002	5.11377
372.214	5.89375
372.425	4.3385
372.637	5.44821
372.849	4.76752
373.061	3.04863
373.273	4.60024
373.484	4.67479
373.696	5.10924
373.908	3.0351
374.12	5.27383
374.331	4.76933
374.543	3.96436
374.755	3.89111
374.967	4.6038
375.178	5.18037
375.39	4.29351
375.602	4.75298
375.813	3.56421
376.025	3.98895
376.236	4.67385
376.448	4.96942
376.66	4.54673
376.871	4.58087
377.083	5.66636
377.294	6.02997
377.506	4.64492
377.717	5.90951
377.929	5.0828
378.14	4.64053
378.352	5.23709
378.563	5.29634
378.775	5.82533
378.986	4.48902
379.197	5.05554
379.409	4.49042
379.62	5.46176
379.832	5.32583
380.043	4.84662
380.254	5.21312
380.466	4.44648
380.677	7.11715
380.888	6.37697
381.1	6.90548
381.311	7.07038
381.522	5.50224
381.733	7.17334
381.945	5.25772
382.156	5.12371
382.367	4.97218
382.578	7.27232
382.789	7.15343
383.001	5.02434
383.212	6.56341
383.423	6.61659
383.634	6.30889
383.845	6.09109
384.056	5.28652
384.267	5.69458
384.478	5.70384
384.69	4.90546
384.901	6.00118
385.112	5.86099
385.323	6.90607
385.534	6.05069
385.745	5.99025
385.956	6.02114
386.167	5.23601
386.378	6.11332
386.588	5.38515
386.799	5.30459
387.01	4.97681
387.221	6.47853
387.432	5.91958
387.643	7.10386
387.854	5.81331
388.065	5.85789
388.275	5.96244
388.486	5.58592
388.697	5.98045
388.908	5.73791
389.119	6.78942
389.329	6.98493
389.54	6.20665
389.751	6.41397
389.962	7.05958
390.172	6.26449
390.383	6.09754
390.594	5.78549
390.804	5.9834
391.015	5.99577
391.226	6.49126
391.436	6.78042
391.647	6.62524
391.858	6.83614
392.068	5.51773
392.279	5.87412
392.489	6.76079
392.7	7.16743
392.91	6.23983
393.121	6.09785
393.331	6.92934
393.542	7.27684
393.752	7.19286
393.963	6.98116
394.173	6.86273
394.384	7.03181
394.594	6.9028
394.804	6.15363
395.015	6.90376
395.225	7.0978
395.436	6.25154
395.646	7.05453
395.856	6.58464
396.067	5.85585
396.277	7.36596
396.487	7.11526
396.697	7.2388
396.908	7.12236
397.118	7.19084
397.328	7.02512
397.538	7.48654
397.749	6.40671
397.959	7.4712
398.169	7.19014
398.379	6.1701
398.589	7.26493
398.8	7.09037
399.01	7.14155
399.22	6.89806
399.43	8.39512
399.64	7.06828
399.85	7.41268
400.06	7.28582
400.27	6.55257
400.48	6.9851
400.69	7.969
400.9	6.83171
401.11	6.50997
401.32	7.60671
401.53	6.84878
401.74	8.29139
401.95	7.52165
402.16	6.86146
402.37	7.28944
402.58	6.95338
402.79	7.58802
403	7.9923
403.209	6.91315
403.419	7.99576
403.629	6.83292
403.839	7.99353
404.049	7.89544
404.258	7.3105
404.468	7.0804
404.678	7.76425
404.888	8.32624
405.097	7.40922
405.307	7.52595
405.517	8.05608
405.727	7.81531
405.936	7.46554
406.146	7.82674
406.356	8.4619
406.565	7.59368
406.775	7.4175
406.984	7.35477
407.194	8.74079
407.404	7.59018
407.613	7.98205
407.823	7.97313
408.032	8.31945
408.242	8.23835
408.451	7.40274
408.661	7.61739
408.87	8.69704
409.08	7.34232
409.289	7.90198
409.499	7.97312
409.708	7.93597
409.918	6.61965
410.127	8.06659
410.336	8.83137
410.546	8.31803
410.755	7.6407
410.964	7.8128
411.174	7.35397
411.383	8.19287
411.592	8.18238
411.802	7.4986
412.011	8.24024
412.22	7.812
412.429	9.03222
412.639	8.92592
412.848	8.52086
413.057	8.83911
413.266	8.67832
413.475	8.07324
413.685	8.287
413.894	8.66187
414.103	8.647
414.312	8.57429
414.521	8.04029
414.73	8.196
414.939	9.32892
415.148	8.6077
415.357	8.42418
415.566	8.28893
415.776	8.11345
415.985	8.20199
416.194	8.95232
416.403	9.61253
416.611	7.79937
416.82	8.33758
417.029	8.7293
417.238	8.33629
417.447	8.19726
417.656	8.58903
417.865	8.28307
418.074	8.6792
418.283	8.85204
418.492	9.37721
418.7	9.24916
418.909	10.16869
419.118	9.41006
419.327	9.76392
419.536	9.68821
419.744	9.75577
419.953	10.91105
420.162	11.20317
420.371	10.73398
420.579	11.25732
420.788	12.06026
420.997	12.19188
421.205	12.48867
421.414	12.30291
421.623	12.49493
421.831	12.10811
422.04	12.56695
422.249	11.83731
422.457	12.05649
422.666	11.20054
422.874	12.06748
423.083	12.10889
423.291	12.03822
423.5	11.99449
423.708	12.40504
423.917	12.79635
424.125	12.45283
424.334	12.34376
424.542	13.88578
424.751	13.43229
424.959	13.07391
425.167	13.16285
425.376	12.97611
425.584	11.74118
425.793	11.77119
426.001	10.78009
426.209	10.84822
426.418	9.82338
426.626	9.4913
426.834	9.3547
