Data from WindowProjectSample_Transmission__37__00037.txt Node

Date: Sat May 03 15:47:03 EDT 2025
User: jessi
Spectrometer: SR400872
Trigger mode: 0
Integration Time (sec): 5.000010E-1
Scans to average: 6
Electric dark correction enabled: true
Nonlinearity correction enabled: true
Boxcar width: 0
XAxis mode: Wavelengths
Number of Pixels in Spectrum: 3648
>>>>>Begin Spectral Data<<<<<
184.909	11660.11852
185.132	1353.53372
185.355	-6937.56906
185.578	2399.78873
185.801	1340.78432
186.024	-20274.67127
186.247	2990.75987
186.47	3774.62745
186.693	-760.32388
186.916	1053.71972
187.139	5527.31017
187.362	3712.64183
187.585	19028.77425
187.808	1138.62193
188.031	-29.44471
188.254	2138.2635
188.476	-5272.28355
188.699	-3983.26479
188.922	-411.07637
189.145	-17171.18799
189.368	-273.86746
189.591	-712.71791
189.813	2393.67547
190.036	2039.11012
190.259	9193.62453
190.482	5495.8027
190.705	5580.61534
190.927	-989.33731
191.15	2265.15307
191.373	732.30449
191.595	-1357.72593
191.818	1470.11147
192.041	2478.38533
192.263	11419.68021
192.486	-1058.30956
192.709	-2900.35263
192.931	18372.01545
193.154	11920.83316
193.377	3694.19573
193.599	-13478.26853
193.822	956.00279
194.044	-1838.50047
194.267	468.39986
194.489	-146.53234
194.712	2388.72112
194.934	3080.13283
195.157	380.47652
195.379	626.00086
195.602	2736.62026
195.824	1380.78846
196.047	-4390.96592
196.269	-7256.82523
196.492	-1861.23922
196.714	-6024.53235
196.936	19915.86453
197.159	96508.29698
197.381	-28628.83834
197.604	-907.83335
197.826	6089.51645
198.048	-3277.6773
198.271	8165.90993
198.493	2619.01888
198.715	-22133.81459
198.938	-570.28631
199.16	71935.68405
199.382	1636.23411
199.604	1071.61327
199.827	25981.74824
200.049	1004.60781
200.271	1737.29588
200.493	13968.51751
200.715	15390.36326
200.938	-2610.79015
201.16	-5628.52639
201.382	1924.34097
201.604	-1007.87135
201.826	2728.52941
202.048	866.10029
202.27	2532.78467
202.492	-2862.59893
202.715	10900.11573
202.937	17023.85629
203.159	1840.42583
203.381	-2414.14608
203.603	3235.74841
203.825	-1256.88942
204.047	6099.72564
204.269	-1051.80996
204.491	-1562.79008
204.713	8980.91984
204.935	-1832.59528
205.156	5675.93026
205.378	1585.62529
205.6	-1518.06962
205.822	2065.91026
206.044	-696.38181
206.266	-13757.16611
206.488	1950.94562
206.71	3693.80954
206.932	14718.89139
207.153	-2721.98771
207.375	2953.28467
207.597	11770.24128
207.819	3079.79095
208.041	1842.64365
208.262	689.43611
208.484	-996.70491
208.706	791.10773
208.927	1113.41293
209.149	-733.16447
209.371	-10994.92791
209.593	527.69485
209.814	3570.82769
210.036	1928.9513
210.258	-8612.28401
210.479	-950.65686
210.701	707.47424
210.922	2706.08636
211.144	2808.46726
211.366	-8844.70625
211.587	-608.58927
211.809	-4081.97027
212.03	-537.90591
212.252	-13940.19823
212.473	1342.68523
212.695	-635.70493
212.916	-639.19809
213.138	-2600.33446
213.359	-42298.31689
213.581	26617.17405
213.802	-502.86058
214.024	6664.14697
214.245	-9195.9569
214.466	-231.96613
214.688	8118.25767
214.909	-3245.25974
215.131	5411.58604
215.352	-1651.42378
215.573	13611.09816
215.795	1801.30847
216.016	2713.98422
216.237	-862.60337
216.459	1802.47233
216.68	7098.07627
216.901	9184.44479
217.122	-944.67848
217.344	3664.09583
217.565	-6002.23349
217.786	2247.15879
218.007	1233.00997
218.228	-2737.7098
218.45	12109.76952
218.671	-1789.75905
218.892	1503.83904
219.113	2471.22122
219.334	-503.94123
219.555	-1911.32926
219.776	1011.7672
219.997	4165.87741
220.219	1497.71238
220.44	2613.92165
220.661	2303.80015
220.882	-22453.8296
221.103	518.18099
221.324	1490.96628
221.545	4032.53613
221.766	-6018.89214
221.987	-1243.27673
222.208	-1649.67697
222.429	3536.415
222.65	-523.18588
222.87	-2452.22643
223.091	-22055.81515
223.312	1030.26
223.533	-3544.99601
223.754	1946.22501
223.975	1242.92287
224.196	-1773.32907
224.417	-4263.69555
224.637	-4830.31762
224.858	147.04058
225.079	803.12706
225.3	1191.22765
225.521	2812.6329
225.741	-2318.97575
225.962	765.6524
226.183	474.83505
226.404	723.45731
226.624	818.36296
226.845	435.07617
227.066	441.24609
227.286	271.36041
227.507	144.91681
227.728	100.72684
227.948	174.76059
228.169	51.86416
228.389	55.4389
228.61	28.4269
228.831	39.20969
229.051	3.60637
229.272	24.94634
229.492	33.91547
229.713	10.23259
229.933	26.6092
230.154	21.88945
230.374	34.32828
230.595	26.22435
230.815	17.95634
231.036	25.19912
231.256	-5.04339
231.477	48.25629
231.697	26.05156
231.917	23.34685
232.138	37.69037
232.358	83.93612
232.579	73.9777
232.799	9.27967
233.019	69.05668
233.24	90.39651
233.46	30.72198
233.68	49.43987
233.901	37.66571
234.121	18.83117
234.341	10.43172
234.561	-1.64251
234.782	18.10847
235.002	56.07668
235.222	-4.99512
235.442	45.55958
235.662	22.64322
235.883	49.90946
236.103	42.09978
236.323	32.28169
236.543	21.74679
236.763	31.72599
236.983	31.8024
237.203	35.4598
237.423	48.12839
237.643	67.51768
237.864	60.33593
238.084	14.56899
238.304	22.8045
238.524	36.78584
238.744	29.85091
238.964	51.23771
239.184	47.13185
239.404	49.68144
239.624	25.10198
239.843	46.9194
240.063	27.03708
240.283	18.79193
240.503	20.74137
240.723	18.79798
240.943	8.47408
241.163	15.56157
241.383	6.13616
241.603	5.38873
241.822	7.40171
242.042	5.54229
242.262	6.28365
242.482	7.50259
242.702	8.9924
242.921	2.77161
243.141	6.20802
243.361	4.68488
243.581	7.59713
243.8	6.52986
244.02	4.27768
244.24	7.80643
244.459	7.61145
244.679	15.02543
244.899	9.43838
245.118	11.55143
245.338	9.37187
245.558	12.40374
245.777	7.09716
245.997	8.33118
246.216	8.48345
246.436	4.57192
246.655	3.65235
246.875	2.75306
247.094	5.09962
247.314	1.67783
247.533	2.96011
247.753	3.58551
247.972	2.80698
248.192	1.16087
248.411	1.89892
248.631	3.00893
248.85	3.96021
249.07	3.17001
249.289	5.34422
249.508	3.90096
249.728	6.33896
249.947	6.64627
250.166	6.858
250.386	4.48346
250.605	5.2206
250.824	9.20978
251.044	6.87113
251.263	21.82625
251.482	11.40611
251.701	10.92355
251.921	0.19699
252.14	3.8289
252.359	3.49743
252.578	8.70827
252.798	2.81207
253.017	7.63703
253.236	4.15893
253.455	4.98384
253.674	10.00466
253.893	4.82265
254.112	6.59265
254.331	9.44212
254.551	8.3633
254.77	4.45336
254.989	12.72063
255.208	11.83077
255.427	12.83828
255.646	11.68427
255.865	18.99593
256.084	7.64201
256.303	8.5168
256.522	12.31006
256.741	2.66194
256.96	2.83995
257.179	7.16733
257.397	9.28389
257.616	4.94371
257.835	5.64981
258.054	13.01235
258.273	8.17075
258.492	9.69629
258.711	5.53222
258.93	2.31506
259.148	3.54749
259.367	3.65693
259.586	4.84525
259.805	2.21174
260.023	4.35802
260.242	3.29952
260.461	2.31676
260.68	1.40818
260.898	4.05713
261.117	1.29001
261.336	1.07173
261.554	3.15715
261.773	3.26158
261.992	0.80957
262.21	3.22656
262.429	4.34431
262.648	6.63256
262.866	7.64385
263.085	5.20063
263.303	4.52768
263.522	7.84362
263.74	8.33138
263.959	13.16575
264.178	6.59955
264.396	6.02873
264.615	4.3205
264.833	10.70468
265.051	8.78486
265.27	8.92922
265.488	10.12519
265.707	6.39872
265.925	9.91137
266.144	4.52138
266.362	5.69415
266.58	5.87779
266.799	4.36053
267.017	5.73769
267.235	5.3756
267.454	2.95556
267.672	2.17274
267.89	3.97724
268.109	4.19154
268.327	3.84978
268.545	1.00607
268.763	3.79096
268.982	1.48149
269.2	4.90015
269.418	2.6378
269.636	1.94425
269.854	3.9337
270.073	3.09573
270.291	1.77273
270.509	1.59914
270.727	3.82616
270.945	6.25815
271.163	6.73362
271.381	1.3222
271.599	2.58436
271.817	4.98425
272.036	1.91545
272.254	2.75342
272.472	2.36703
272.69	2.22745
272.908	2.32711
273.126	3.96698
273.344	4.79252
273.562	1.8147
273.779	2.57728
273.997	3.62708
274.215	3.90741
274.433	2.83438
274.651	4.12825
274.869	4.2136
275.087	2.55796
275.305	4.06498
275.523	2.15443
275.74	3.15364
275.958	5.3155
276.176	7.32668
276.394	2.26125
276.612	3.0899
276.829	3.10547
277.047	2.17206
277.265	2.8973
277.483	3.40463
277.7	4.07418
277.918	3.50113
278.136	5.76329
278.353	2.9855
278.571	1.45242
278.789	4.41844
279.006	0.93826
279.224	2.68028
279.442	4.8472
279.659	3.10347
279.877	2.53323
280.094	5.14057
280.312	0.9084
280.529	3.20779
280.747	0.75648
280.964	2.47087
281.182	5.72746
281.399	2.70986
281.617	3.73773
281.834	2.36371
282.052	2.13961
282.269	2.6782
282.487	2.40364
282.704	1.88446
282.921	2.3291
283.139	3.05021
283.356	3.90378
283.574	3.34316
283.791	1.90772
284.008	4.9428
284.226	2.59249
284.443	2.97727
284.66	3.88483
284.877	2.59989
285.095	2.27039
285.312	1.60184
285.529	1.15015
285.746	0.82175
285.964	2.00066
286.181	1.20972
286.398	1.89958
286.615	2.57355
286.832	2.55307
287.05	0.89581
287.267	1.64956
287.484	1.80408
287.701	2.58527
287.918	2.73034
288.135	2.56881
288.352	1.29838
288.569	1.38453
288.786	2.20385
289.003	1.82753
289.22	2.58877
289.437	1.79433
289.654	2.82154
289.871	3.10193
290.088	2.92716
290.305	2.28925
290.522	1.65827
290.739	2.05768
290.956	2.89947
291.173	3.55292
291.39	3.33985
291.607	2.34211
291.824	1.85339
292.04	1.16094
292.257	2.59961
292.474	3.12827
292.691	2.07013
292.908	0.99096
293.125	1.95655
293.341	1.08573
293.558	4.93289
293.775	2.15284
293.992	2.13124
294.208	0.73657
294.425	1.17255
294.642	1.75214
294.858	2.56074
295.075	0.77417
295.292	1.97952
295.508	2.2714
295.725	3.60128
295.942	1.64569
296.158	1.14832
296.375	2.0672
296.591	1.61287
296.808	1.69018
297.024	1.96606
297.241	2.15534
297.458	2.30863
297.674	0.21146
297.891	1.82387
298.107	1.37447
298.323	1.08849
298.54	2.64012
298.756	1.13606
298.973	0.60912
299.189	2.84894
299.406	1.24417
299.622	2.87461
299.838	2.66925
300.055	2.65069
300.271	0.54896
300.487	0.77129
300.704	1.13789
300.92	0.80668
301.136	3.9469
301.353	2.68704
301.569	1.92097
301.785	2.24879
302.001	2.61807
302.218	2.20503
302.434	2.09868
302.65	0.79033
302.866	1.63326
303.083	3.72149
303.299	3.53797
303.515	1.79727
303.731	2.11687
303.947	0.70701
304.163	1.32326
304.379	2.24397
304.595	2.4961
304.812	1.39076
305.028	1.15349
305.244	1.6609
305.46	2.55157
305.676	2.62339
305.892	3.1427
306.108	1.86833
306.324	1.67213
306.54	3.58472
306.756	2.44379
306.972	2.57564
307.187	1.66654
307.403	3.32566
307.619	1.36526
307.835	2.92621
308.051	3.42324
308.267	0.57515
308.483	2.87653
308.699	2.37287
308.914	2.05245
309.13	1.70995
309.346	0.55222
309.562	0.97389
309.778	0.61946
309.993	2.43889
310.209	1.90036
310.425	0.71322
310.641	1.83071
310.856	0.93069
311.072	0.95322
311.288	1.82344
311.503	1.97156
311.719	0.3342
311.935	0.34603
312.15	2.12958
312.366	1.92097
312.581	2.22098
312.797	1.84839
313.013	2.46652
313.228	1.4037
313.444	1.9213
313.659	1.32036
313.875	2.30771
314.09	1.84893
314.306	3.05455
314.521	2.66873
314.737	2.46556
314.952	2.06058
315.168	1.80572
315.383	2.36663
315.599	1.69996
315.814	1.48407
316.029	2.70199
316.245	0.66851
316.46	0.66968
316.675	3.14211
316.891	3.77993
317.106	4.4399
317.321	2.63549
317.537	2.42765
317.752	2.60069
317.967	2.94019
318.183	1.3184
318.398	1.72571
318.613	2.9257
318.828	3.20156
319.043	2.7025
319.259	1.57963
319.474	2.27
319.689	3.04928
319.904	0.37002
320.119	2.59863
320.334	2.30662
320.549	2.05575
320.765	3.01231
320.98	2.25572
321.195	2.96593
321.41	1.84087
321.625	2.62542
321.84	3.51791
322.055	3.77703
322.27	1.28627
322.485	1.11046
322.7	2.04277
322.915	2.9937
323.13	1.45167
323.345	3.28823
323.56	2.87299
323.775	2.71976
323.989	2.4487
324.204	2.27837
324.419	2.70435
324.634	0.79395
324.849	1.76257
325.064	4.28291
325.279	3.09957
325.493	2.58056
325.708	3.05308
325.923	1.28943
326.138	1.12281
326.352	3.42442
326.567	2.79634
326.782	1.71255
326.997	1.33189
327.211	2.47868
327.426	2.41013
327.641	1.62225
327.855	0.61524
328.07	2.52523
328.285	3.78615
328.499	1.81842
328.714	2.48105
328.928	2.55573
329.143	2.31329
329.358	2.88241
329.572	3.14159
329.787	3.30263
330.001	4.29249
330.216	0.86325
330.43	3.71473
330.645	3.64209
330.859	2.81603
331.074	1.40451
331.288	2.29474
331.503	3.25533
331.717	1.10497
331.931	1.94903
332.146	2.03743
332.36	3.55914
332.575	2.65191
332.789	2.21292
333.003	2.13949
333.218	2.67528
333.432	1.77515
333.646	2.74373
333.86	3.3257
334.075	3.63823
334.289	1.89333
334.503	1.4067
334.717	2.82526
334.932	2.67501
335.146	3.37326
335.36	1.9391
335.574	2.69928
335.788	2.66651
336.003	3.22184
336.217	2.61828
336.431	2.77695
336.645	1.71025
336.859	1.14692
337.073	1.90455
337.287	2.31757
337.501	1.39916
337.715	2.27239
337.929	2.69875
338.143	1.21605
338.357	2.2489
338.571	1.15375
338.785	2.55098
338.999	1.73262
339.213	1.99841
339.427	0.9304
339.641	3.20187
339.855	1.90167
340.069	1.48076
340.283	3.25646
340.497	3.75207
340.711	2.37332
340.924	1.64588
341.138	1.16831
341.352	0.69813
341.566	2.51353
341.78	0.59047
341.993	1.59078
342.207	1.20463
342.421	2.33689
342.635	2.18042
342.848	1.62293
343.062	0.17134
343.276	1.35829
343.49	4.08364
343.703	1.55408
343.917	2.65973
344.131	2.94084
344.344	1.50844
344.558	1.59259
344.771	1.29188
344.985	3.25113
345.199	3.33207
345.412	2.12719
345.626	2.29845
345.839	0.68859
346.053	1.11282
346.266	1.02067
346.48	2.76069
346.693	2.294
346.907	2.51605
347.12	1.25631
347.334	2.23044
347.547	2.38041
347.76	1.80825
347.974	3.1419
348.187	2.2514
348.401	1.86335
348.614	1.45283
348.827	1.77924
349.041	2.58642
349.254	0.76238
349.467	1.83837
349.681	0.73464
349.894	1.42606
350.107	3.2597
350.32	3.28771
350.534	0.60484
350.747	1.6416
350.96	1.28664
351.173	1.32515
351.386	1.78926
351.6	1.62783
351.813	1.31
352.026	2.16211
352.239	0.78323
352.452	1.63946
352.665	2.56636
352.878	1.58465
353.092	3.83679
353.305	2.41997
353.518	2.0517
353.731	1.16153
353.944	3.10072
354.157	1.15539
354.37	1.10735
354.583	0.81543
354.796	0.54035
355.009	2.80098
355.222	1.77384
355.435	2.00499
355.647	2.83585
355.86	1.02324
356.073	1.72357
356.286	1.28919
356.499	2.53495
356.712	2.11258
356.925	2.13736
357.138	2.57574
357.35	1.03136
357.563	1.46059
357.776	1.82164
357.989	1.35388
358.201	2.20642
358.414	1.67687
358.627	2.70564
358.84	1.56959
359.052	1.05385
359.265	0.82113
359.478	2.57907
359.69	-0.30038
359.903	2.08178
360.116	2.36123
360.328	0.41962
360.541	2.35321
360.753	0.93772
360.966	1.20857
361.179	1.26645
361.391	1.18917
361.604	0.80286
361.816	1.16292
362.029	0.95168
362.241	0.88187
362.454	1.15906
362.666	0.76555
362.879	1.53024
363.091	1.18211
363.304	0.87029
363.516	1.50648
363.728	0.62116
363.941	1.91241
364.153	1.0528
364.366	-0.0629
364.578	0.79547
364.79	1.79857
365.003	1.56327
365.215	1.34096
365.427	1.88362
365.639	2.49108
365.852	1.82492
366.064	3.18458
366.276	1.08262
366.488	1.95439
366.701	1.2109
366.913	1.50811
367.125	1.45205
367.337	1.06705
367.549	1.2483
367.762	1.67624
367.974	1.62061
368.186	1.1084
368.398	2.38034
368.61	1.99123
368.822	2.09995
369.034	1.66982
369.246	2.11764
369.458	3.4526
369.67	0.85525
369.882	3.0878
370.094	0.13283
370.306	3.00247
370.518	1.22655
370.73	0.92138
370.942	1.10695
371.154	1.33948
371.366	1.0376
371.578	1.83038
371.79	0.92943
372.002	2.47995
372.214	2.88473
372.425	1.68696
372.637	2.54456
372.849	1.52202
373.061	-0.02898
373.273	1.92921
373.484	2.07626
373.696	2.37231
373.908	-0.04795
374.12	2.30448
374.331	2.11559
374.543	0.9292
374.755	0.87062
374.967	1.7097
375.178	2.33305
375.39	1.4159
375.602	1.69336
375.813	0.84748
376.025	0.55474
376.236	1.72773
376.448	1.73591
376.66	1.27816
376.871	1.17259
377.083	2.35868
377.294	2.49725
377.506	1.16422
377.717	2.44052
377.929	1.79989
378.14	1.193
378.352	1.85913
378.563	2.04497
378.775	2.61145
378.986	1.07563
379.197	1.43556
379.409	1.23654
379.62	2.16629
379.832	1.85766
380.043	1.28899
380.254	1.76052
380.466	0.71098
380.677	3.76943
380.888	3.33121
381.1	3.67774
381.311	3.54638
381.522	1.85568
381.733	4.02383
381.945	1.49145
382.156	1.69135
382.367	1.51349
382.578	3.92978
382.789	3.80135
383.001	1.32154
383.212	3.08223
383.423	3.07497
383.634	2.4909
383.845	2.40826
384.056	1.44847
384.267	1.78436
384.478	1.70909
384.69	0.99088
384.901	2.36487
385.112	2.17333
385.323	3.13939
385.534	2.14887
385.745	2.35646
385.956	2.26704
386.167	1.15559
386.378	2.34579
386.588	1.27931
386.799	1.35579
387.01	0.97349
387.221	2.77975
387.432	2.00146
387.643	3.3352
387.854	1.85755
388.065	2.06237
388.275	1.9225
388.486	1.83089
388.697	2.1201
388.908	1.94827
389.119	3.01285
389.329	3.32457
389.54	2.25909
389.751	2.65676
389.962	3.30166
390.172	2.33262
390.383	2.13334
390.594	1.90336
390.804	1.80349
391.015	2.16108
391.226	2.56583
391.436	2.86713
391.647	2.74194
391.858	3.00604
392.068	1.41054
392.279	1.84837
392.489	2.87328
392.7	3.2801
392.91	2.08953
393.121	2.17748
393.331	2.98913
393.542	3.49344
393.752	3.25232
393.963	3.03456
394.173	2.99477
394.384	3.34516
394.594	2.8139
394.804	2.11491
395.015	2.97085
395.225	3.39
395.436	2.22582
395.646	3.36401
395.856	2.69713
396.067	1.95998
396.277	3.76219
396.487	3.38795
396.697	3.51365
396.908	3.95219
397.118	3.51207
397.328	3.46429
397.538	3.88721
397.749	2.80544
397.959	3.92361
398.169	3.6879
398.379	2.49385
398.589	3.57973
398.8	3.75884
399.01	3.56054
399.22	3.28837
399.43	5.01718
399.64	3.50512
399.85	4.20546
400.06	3.58939
400.27	3.14781
400.48	3.62375
400.69	4.5919
400.9	3.47994
401.11	3.11102
401.32	4.40325
401.53	3.54477
401.74	4.82008
401.95	4.29709
402.16	3.65493
402.37	4.35153
402.58	3.75431
402.79	4.24463
403	4.43064
403.209	3.64589
403.419	4.91868
403.629	3.74211
403.839	4.94111
404.049	5.03829
404.258	4.09699
404.468	4.11821
404.678	5.01402
404.888	5.28585
405.097	4.43649
405.307	4.40264
405.517	5.14961
405.727	5.09765
405.936	4.3199
406.146	4.99507
406.356	5.55969
406.565	4.75492
406.775	4.20208
406.984	4.40452
407.194	6.31979
407.404	4.83648
407.613	5.17715
407.823	5.52746
408.032	5.77136
408.242	5.56174
408.451	4.82389
408.661	4.91416
408.87	6.20014
409.08	4.63574
409.289	5.58006
409.499	5.44929
409.708	5.19852
409.918	3.85207
410.127	5.57559
410.336	6.42554
410.546	5.96373
410.755	5.01517
410.964	5.16933
411.174	4.68819
411.383	5.75001
411.592	5.78043
411.802	4.84866
412.011	6.01236
412.22	5.39255
412.429	6.64525
412.639	6.69361
412.848	6.45511
413.057	6.92252
413.266	6.56878
413.475	5.8043
413.685	6.24716
413.894	6.35011
414.103	6.55672
414.312	6.27218
414.521	5.78576
414.73	6.38048
414.939	7.33591
415.148	6.4251
415.357	6.4127
415.566	6.22633
415.776	6.13831
415.985	6.21507
416.194	6.88666
416.403	7.75732
416.611	5.58264
416.82	6.23696
417.029	6.76093
417.238	6.27399
417.447	6.39823
417.656	6.6245
417.865	6.62764
418.074	7.0097
418.283	7.47813
418.492	8.5546
418.7	8.43166
418.909	10.0259
419.118	8.60977
419.327	9.31698
419.536	9.0924
419.744	9.03215
419.953	10.62671
420.162	10.78479
420.371	9.98032
420.579	10.51038
420.788	11.55768
420.997	11.82774
421.205	11.88795
421.414	11.51351
421.623	11.97688
421.831	11.1878
422.04	11.93421
422.249	11.039
422.457	11.32558
422.666	10.53763
422.874	11.50803
423.083	11.61977
423.291	11.58013
423.5	11.67696
423.708	12.09777
423.917	12.82095
424.125	11.86899
424.334	11.78741
424.542	13.7713
424.751	13.1341
424.959	12.62193
425.167	12.93282
425.376	12.44583
425.584	11.29868
425.793	11.2004
426.001	9.97409
426.209	10.3225
426.418	9.13197
426.626	8.51909
426.834	8.29852
427.042	8.199
