Data from WindowProjectSample_Transmission__63__00063.txt Node

Date: Sat May 03 17:19:57 EDT 2025
User: jessi
Spectrometer: SR400872
Trigger mode: 0
Integration Time (sec): 5.000010E-1
Scans to average: 6
Electric dark correction enabled: true
Nonlinearity correction enabled: true
Boxcar width: 0
XAxis mode: Wavelengths
Number of Pixels in Spectrum: 3648
>>>>>Begin Spectral Data<<<<<
184.909	9454.55364
185.132	3105.35376
185.355	-3224.92416
185.578	4382.96535
185.801	-657.47162
186.024	10069.35571
186.247	718.40211
186.47	675.03734
186.693	558.86554
186.916	329.00141
187.139	7039.11301
187.362	-2302.83916
187.585	-30587.47441
187.808	953.04165
188.031	-68.59177
188.254	1377.45749
188.476	-1809.66677
188.699	1738.24279
188.922	2802.03282
189.145	7387.58115
189.368	-329.51262
189.591	-672.47074
189.813	1699.9585
190.036	3253.04291
190.259	4325.32585
190.482	1221.34514
190.705	-4866.10875
190.927	-1763.96196
191.15	4659.54716
191.373	1486.20135
191.595	-887.43798
191.818	2753.45238
192.041	-355.60575
192.263	-4081.5988
192.486	-4271.75632
192.709	14858.13195
192.931	3206.61854
193.154	5776.14124
193.377	-49895.37657
193.599	-22553.79499
193.822	-3071.24553
194.044	-2628.73627
194.267	934.75965
194.489	123.6629
194.712	2405.34989
194.934	16176.60471
195.157	2022.73502
195.379	3275.21283
195.602	1145.63281
195.824	1562.70133
196.047	-3297.77417
196.269	59286.32442
196.492	-2762.35652
196.714	9524.6778
196.936	1836.1962
197.159	2889.42803
197.381	-573.13226
197.604	-1673.4696
197.826	62266.2564
198.048	1515.46231
198.271	8485.18248
198.493	5904.50179
198.715	-10752.26154
198.938	-2874.93406
199.16	-6556.6688
199.382	2209.87303
199.604	850.15541
199.827	-1976.80655
200.049	966.97015
200.271	-9628.47179
200.493	5301.58776
200.715	30872.55354
200.938	11724.07338
201.16	-31509.05585
201.382	-5242.44011
201.604	-1179.66753
201.826	2075.54751
202.048	-9904.08221
202.27	4354.9459
202.492	12710.72704
202.715	-970.26143
202.937	27315.22505
203.159	3405.80542
203.381	1326.03086
203.603	-1129.24019
203.825	-1046.15057
204.047	2846.15653
204.269	-1553.52816
204.491	-1033.8199
204.713	7100.13252
204.935	-3223.94116
205.156	1261.84939
205.378	8293.6697
205.6	-1402.05234
205.822	-51716.12991
206.044	-2295.13806
206.266	5354.40718
206.488	897.11092
206.71	-27614.48726
206.932	3911.98044
207.153	-7911.27636
207.375	-2543.42936
207.597	4613.5348
207.819	1843.9654
208.041	-50468.47509
208.262	1258.89894
208.484	-1030.9566
208.706	-1055.29795
208.927	1884.46297
209.149	-1953.82687
209.371	-1367.11544
209.593	-1376.72125
209.814	-2439.51677
210.036	-827.28006
210.258	-2674.34863
210.479	2700.33565
210.701	2315.96107
210.922	5542.93234
211.144	42035.04214
211.366	-29448.77573
211.587	-846.33647
211.809	-2238.08577
212.03	-1196.88356
212.252	-483.19106
212.473	852.57932
212.695	-898.88269
212.916	-1680.8147
213.138	2967.83446
213.359	-1637.5535
213.581	1186.60435
213.802	-1370.80612
214.024	4103.66844
214.245	-4819.78979
214.466	-305.37583
214.688	1425.43713
214.909	-691.35242
215.131	-4874.78626
215.352	-5219.47898
215.573	6169.89164
215.795	1999.77605
216.016	8009.28908
216.237	-469.30376
216.459	2204.09448
216.68	-2213.72319
216.901	1453.38158
217.122	3884.77869
217.344	3486.24646
217.565	-3174.31212
217.786	2311.21501
218.007	62517.68692
218.228	2430.8322
218.45	2846.39645
218.671	-1472.22197
218.892	1685.51709
219.113	3072.25649
219.334	1454.68719
219.555	-4656.90212
219.776	1466.22226
219.997	5995.42267
220.219	651.38502
220.44	4317.04409
220.661	4553.33265
220.882	2968.40643
221.103	-841.9154
221.324	-2355.46438
221.545	-3871.3621
221.766	-2114.34238
221.987	2998.08283
222.208	-5202.67269
222.429	4531.27154
222.65	-534.49267
222.87	-759.09262
223.091	1778.00799
223.312	2726.6861
223.533	11671.70065
223.754	1381.7223
223.975	1237.08905
224.196	-1824.82087
224.417	1914.79283
224.637	-5395.44765
224.858	-891.64698
225.079	814.88157
225.3	1482.17981
225.521	2261.63493
225.741	679.33799
225.962	1129.87813
226.183	-4555.31667
226.404	678.07101
226.624	754.38259
226.845	531.88807
227.066	428.18969
227.286	218.49312
227.507	123.4071
227.728	88.60365
227.948	149.98219
228.169	47.03493
228.389	55.67068
228.61	27.57171
228.831	39.62647
229.051	5.48245
229.272	24.67516
229.492	33.34603
229.713	11.24756
229.933	23.926
230.154	20.73539
230.374	35.09002
230.595	24.87244
230.815	16.89369
231.036	25.15844
231.256	-2.88473
231.477	44.65732
231.697	23.31443
231.917	25.93027
232.138	43.23309
232.358	85.72765
232.579	70.29392
232.799	10.48542
233.019	64.98614
233.24	77.94505
233.46	24.79362
233.68	48.32827
233.901	35.93854
234.121	19.34083
234.341	6.89622
234.561	2.48091
234.782	17.49553
235.002	51.78816
235.222	0.11865
235.442	43.85787
235.662	20.34025
235.883	43.98819
236.103	38.29223
236.323	25.62951
236.543	20.01745
236.763	28.22935
236.983	31.09029
237.203	30.57881
237.423	46.32759
237.643	60.54286
237.864	56.75139
238.084	15.12587
238.304	22.06798
238.524	33.1722
238.744	30.65059
238.964	46.91103
239.184	44.70215
239.404	47.6642
239.624	23.93008
239.843	42.38509
240.063	26.20779
240.283	17.0843
240.503	18.89635
240.723	18.61095
240.943	9.69242
241.163	14.60289
241.383	10.953
241.603	4.88273
241.822	6.47106
242.042	4.82218
242.262	6.19714
242.482	6.3413
242.702	8.52477
242.921	2.58407
243.141	6.02171
243.361	4.98039
243.581	7.29225
243.8	6.75017
244.02	4.14236
244.24	8.02011
244.459	7.26232
244.679	15.37751
244.899	9.48148
245.118	11.00896
245.338	9.7497
245.558	12.07037
245.777	6.70364
245.997	7.6832
246.216	7.81759
246.436	4.2402
246.655	3.44007
246.875	2.47579
247.094	4.99615
247.314	1.68004
247.533	2.76951
247.753	3.39586
247.972	2.73976
248.192	1.18234
248.411	1.71389
248.631	3.04398
248.85	3.8875
249.07	2.90642
249.289	5.35678
249.508	3.98314
249.728	6.25679
249.947	6.49226
250.166	6.59478
250.386	4.60679
250.605	5.8165
250.824	8.01362
251.044	6.32239
251.263	19.9009
251.482	10.83937
251.701	9.15151
251.921	0.44522
252.14	3.11249
252.359	3.31004
252.578	8.14659
252.798	2.61529
253.017	7.42447
253.236	3.86642
253.455	4.67324
253.674	9.64444
253.893	4.75153
254.112	6.60964
254.331	9.60315
254.551	6.96539
254.77	3.23964
254.989	11.65382
255.208	10.39352
255.427	12.01242
255.646	10.0229
255.865	16.90868
256.084	7.05869
256.303	7.88466
256.522	11.50769
256.741	2.85308
256.96	3.27891
257.179	7.05032
257.397	8.53521
257.616	4.21572
257.835	5.15896
258.054	11.89631
258.273	7.40724
258.492	9.19995
258.711	5.13616
258.93	2.33726
259.148	3.2645
259.367	3.38732
259.586	4.27695
259.805	1.88391
260.023	4.13737
260.242	2.98328
260.461	2.14877
260.68	1.34527
260.898	3.73428
261.117	1.25103
261.336	0.87336
261.554	3.00997
261.773	3.05014
261.992	0.47011
262.21	2.90383
262.429	3.67056
262.648	6.01483
262.866	6.94466
263.085	4.73247
263.303	4.43031
263.522	7.24199
263.74	7.7834
263.959	12.11707
264.178	6.65178
264.396	5.44866
264.615	4.02077
264.833	9.8569
265.051	8.43132
265.27	7.80003
265.488	9.00783
265.707	5.45431
265.925	8.98171
266.144	3.90891
266.362	5.02578
266.58	5.29267
266.799	4.0066
267.017	5.08616
267.235	4.49162
267.454	2.92261
267.672	1.61234
267.89	3.90039
268.109	3.72691
268.327	3.70022
268.545	1.06086
268.763	3.87763
268.982	1.80018
269.2	4.54901
269.418	2.41468
269.636	1.98681
269.854	3.85443
270.073	2.98941
270.291	1.5265
270.509	1.85147
270.727	3.67477
270.945	5.58614
271.163	5.99137
271.381	1.48012
271.599	2.30199
271.817	4.23274
272.036	1.62295
272.254	2.60903
272.472	2.07087
272.69	2.05737
272.908	2.09559
273.126	3.50679
273.344	4.52832
273.562	1.71751
273.779	2.24297
273.997	3.20896
274.215	3.75649
274.433	2.7231
274.651	3.87871
274.869	3.68037
275.087	2.44474
275.305	3.62586
275.523	2.03849
275.74	2.8203
275.958	4.58001
276.176	6.37003
276.394	1.96811
276.612	2.68885
276.829	2.70488
277.047	2.13824
277.265	2.68466
277.483	2.97272
277.7	3.6389
277.918	2.87006
278.136	5.30916
278.353	2.68019
278.571	1.37846
278.789	4.52687
279.006	1.11728
279.224	2.50201
279.442	4.20048
279.659	2.87821
279.877	2.2085
280.094	4.6201
280.312	0.87311
280.529	2.89968
280.747	1.08007
280.964	2.08235
281.182	4.96234
281.399	2.43145
281.617	3.10834
281.834	2.23922
282.052	1.90529
282.269	2.47995
282.487	2.1166
282.704	1.54396
282.921	2.01754
283.139	2.68162
283.356	3.7584
283.574	2.94744
283.791	1.69721
284.008	4.5079
284.226	2.38961
284.443	2.72045
284.66	3.47161
284.877	2.77837
285.095	1.86461
285.312	1.37422
285.529	1.01058
285.746	0.76641
285.964	1.86503
286.181	0.99646
286.398	1.66051
286.615	2.22197
286.832	2.23431
287.05	0.7732
287.267	1.52294
287.484	1.78958
287.701	2.34105
287.918	2.18645
288.135	2.24571
288.352	1.16805
288.569	1.3851
288.786	2.07546
289.003	1.55372
289.22	2.25341
289.437	1.58853
289.654	2.49132
289.871	2.60087
290.088	2.60036
290.305	1.94311
290.522	1.56463
290.739	1.89873
290.956	2.75967
291.173	3.16321
291.39	2.96436
291.607	2.05813
291.824	1.66012
292.04	0.99328
292.257	2.4615
292.474	2.76024
292.691	1.74336
292.908	1.06083
293.125	1.62432
293.341	0.93262
293.558	3.96409
293.775	1.67123
293.992	1.93502
294.208	0.73765
294.425	1.11836
294.642	1.6715
294.858	2.18891
295.075	0.6758
295.292	1.73856
295.508	2.08339
295.725	3.08703
295.942	1.53837
296.158	1.17109
296.375	1.83836
296.591	1.44612
296.808	1.50673
297.024	1.57838
297.241	1.84224
297.458	1.97201
297.674	0.19846
297.891	1.50114
298.107	1.20506
298.323	0.93656
298.54	2.37835
298.756	0.98153
298.973	0.48077
299.189	2.3969
299.406	1.13159
299.622	2.31749
299.838	2.34441
300.055	2.32472
300.271	0.6003
300.487	0.85707
300.704	1.20522
300.92	0.70468
301.136	3.40981
301.353	2.28201
301.569	1.752
301.785	1.95796
302.001	2.35913
302.218	1.95668
302.434	1.91481
302.65	0.64165
302.866	1.43653
303.083	3.32637
303.299	3.12606
303.515	1.68634
303.731	1.79516
303.947	0.67238
304.163	1.01102
304.379	1.83979
304.595	2.02398
304.812	1.17623
305.028	0.97671
305.244	1.45015
305.46	2.37523
305.676	2.34163
305.892	2.77871
306.108	1.61129
306.324	1.41513
306.54	3.15623
306.756	2.11307
306.972	2.19664
307.187	1.52277
307.403	2.86007
307.619	1.20513
307.835	2.41467
308.051	2.82636
308.267	0.57806
308.483	2.33596
308.699	2.03394
308.914	1.80755
309.13	1.63682
309.346	0.47927
309.562	0.86251
309.778	0.53369
309.993	2.00972
310.209	1.58935
310.425	0.79491
310.641	1.33277
310.856	0.87337
311.072	0.78649
311.288	1.39844
311.503	1.67355
311.719	0.38529
311.935	0.29943
312.15	1.84669
312.366	1.49686
312.581	2.05839
312.797	1.62919
313.013	2.0619
313.228	1.20546
313.444	1.79551
313.659	1.1331
313.875	2.0721
314.09	1.51321
314.306	2.7156
314.521	2.23914
314.737	2.02489
314.952	1.86396
315.168	1.63784
315.383	2.14437
315.599	1.4142
315.814	1.48772
316.029	2.25233
316.245	0.67038
316.46	0.55721
316.675	2.65049
316.891	3.13578
317.106	3.83729
317.321	2.22335
317.537	2.03977
317.752	2.33357
317.967	2.24065
318.183	1.17784
318.398	1.34677
318.613	2.47606
318.828	2.78707
319.043	2.30576
319.259	1.25638
319.474	1.94909
319.689	2.66723
319.904	0.39593
320.119	2.28453
320.334	1.92198
320.549	1.73979
320.765	2.48528
320.98	1.87511
321.195	2.4848
321.41	1.41425
321.625	2.35887
321.84	3.14155
322.055	3.15749
322.27	1.19245
322.485	0.90578
322.7	1.95216
322.915	2.58555
323.13	0.94532
323.345	2.89869
323.56	1.97931
323.775	2.26624
323.989	2.11786
324.204	1.85995
324.419	2.27886
324.634	0.80107
324.849	1.58634
325.064	3.58126
325.279	2.53803
325.493	2.20063
325.708	2.55029
325.923	0.9808
326.138	1.17523
326.352	2.83017
326.567	2.37152
326.782	1.49303
326.997	1.15492
327.211	2.2649
327.426	2.15976
327.641	1.35633
327.855	0.60453
328.07	2.05951
328.285	2.93779
328.499	1.4296
328.714	2.07514
328.928	2.19514
329.143	1.72283
329.358	2.40884
329.572	2.5664
329.787	2.77488
330.001	3.58307
330.216	0.71585
330.43	3.02637
330.645	3.09557
330.859	2.37139
331.074	1.2806
331.288	1.8905
331.503	2.74249
331.717	0.80588
331.931	1.70064
332.146	1.79181
332.36	3.20568
332.575	2.25107
332.789	1.96054
333.003	1.61807
333.218	2.25652
333.432	1.59477
333.646	2.08485
333.86	2.83441
334.075	3.08811
334.289	1.41931
334.503	1.1508
334.717	2.25512
334.932	2.1685
335.146	2.86546
335.36	1.65636
335.574	2.27861
335.788	2.183
336.003	2.76589
336.217	2.4173
336.431	2.29937
336.645	1.36594
336.859	0.98169
337.073	1.45483
337.287	2.01582
337.501	0.97175
337.715	1.91003
337.929	2.10998
338.143	1.00707
338.357	1.69892
338.571	0.96504
338.785	2.04472
338.999	1.35859
339.213	1.53201
339.427	0.67681
339.641	2.4476
339.855	1.61923
340.069	1.29456
340.283	2.31542
340.497	3.08949
340.711	2.02542
340.924	1.51545
341.138	0.98117
341.352	0.80564
341.566	1.85645
341.78	0.48395
341.993	1.31543
342.207	0.98368
342.421	1.85544
342.635	1.82185
342.848	1.42536
343.062	0.2567
343.276	1.24371
343.49	3.38529
343.703	1.28694
343.917	2.24433
344.131	2.28754
344.344	1.11686
344.558	1.22137
344.771	1.04076
344.985	2.65692
345.199	2.80887
345.412	1.89692
345.626	1.78522
345.839	0.61384
346.053	0.90109
346.266	0.87159
346.48	2.26352
346.693	1.96023
346.907	2.12711
347.12	1.16722
347.334	1.8731
347.547	1.87335
347.76	1.62756
347.974	2.40818
348.187	1.81056
348.401	1.49985
348.614	1.25312
348.827	1.40277
349.041	2.07773
349.254	0.54296
349.467	1.46475
349.681	0.75539
349.894	1.1747
350.107	2.69121
350.32	2.7152
350.534	0.41446
350.747	1.30976
350.96	0.95338
351.173	1.16965
351.386	1.46149
351.6	1.33437
351.813	1.10388
352.026	1.70883
352.239	0.81302
352.452	1.32356
352.665	2.10705
352.878	1.33576
353.092	3.14435
353.305	2.02031
353.518	1.78412
353.731	1.09595
353.944	2.57758
354.157	1.08249
354.37	0.95973
354.583	0.62371
354.796	0.43167
355.009	2.36698
355.222	1.44251
355.435	1.53686
355.647	2.35738
355.86	0.76266
356.073	1.47031
356.286	1.1495
356.499	1.89131
356.712	1.61533
356.925	1.74051
357.138	2.20255
357.35	0.81994
357.563	1.26951
357.776	1.59479
357.989	1.25764
358.201	1.74393
358.414	1.46038
358.627	2.19969
358.84	1.25612
359.052	0.79039
359.265	0.74658
359.478	2.21591
359.69	-0.2276
359.903	1.79614
360.116	1.95363
360.328	0.40729
360.541	1.88761
360.753	0.70987
360.966	1.05006
361.179	1.0871
361.391	1.07408
361.604	0.81885
361.816	1.1308
362.029	1.03209
362.241	0.86647
362.454	0.98335
362.666	0.84571
362.879	1.26
363.091	1.09967
363.304	0.81148
363.516	1.32256
363.728	0.53859
363.941	1.65704
364.153	0.94998
364.366	0.09437
364.578	0.64527
364.79	1.54609
365.003	1.23759
365.215	1.01703
365.427	1.53257
365.639	1.97783
365.852	1.50405
366.064	2.72407
366.276	1.04012
366.488	1.76257
366.701	0.87411
366.913	1.13422
367.125	1.25269
367.337	0.9731
367.549	1.0501
367.762	1.31482
367.974	1.39894
368.186	0.88333
368.398	1.93315
368.61	1.64374
368.822	1.66723
369.034	1.31406
369.246	1.73094
369.458	2.81427
369.67	0.64221
369.882	2.49419
370.094	0.08712
370.306	2.33168
370.518	1.10468
370.73	0.73496
370.942	0.8851
371.154	1.12627
371.366	0.94234
371.578	1.57609
371.79	0.84839
372.002	2.09822
372.214	2.28165
372.425	1.42029
372.637	2.14966
372.849	1.27855
373.061	0.06149
373.273	1.58344
373.484	1.71187
373.696	1.89572
373.908	0.07772
374.12	1.886
374.331	1.66421
374.543	0.8236
374.755	0.71286
374.967	1.48448
375.178	1.69786
375.39	1.17049
375.602	1.32249
375.813	0.58436
376.025	0.43645
376.236	1.3217
376.448	1.31685
376.66	0.84164
376.871	1.05079
377.083	1.87559
377.294	2.03263
377.506	1.04298
377.717	2.00094
377.929	1.37887
378.14	0.74389
378.352	1.63166
378.563	1.56044
378.775	1.97537
378.986	0.91466
379.197	1.0616
379.409	1.10119
379.62	1.76943
379.832	1.49042
380.043	1.19096
380.254	1.31733
380.466	0.61974
380.677	2.92802
380.888	2.64485
381.1	2.80351
381.311	2.73383
381.522	1.38508
381.733	2.89931
381.945	1.13774
382.156	1.33491
382.367	0.96845
382.578	3.06163
382.789	2.98456
383.001	1.02623
383.212	1.99513
383.423	2.19637
383.634	1.90203
383.845	1.60408
384.056	1.08139
384.267	1.32761
384.478	1.31608
384.69	0.67615
384.901	1.67758
385.112	1.43691
385.323	2.21867
385.534	1.6716
385.745	1.52374
385.956	1.53169
386.167	0.73572
386.378	1.75143
386.588	0.69103
386.799	0.86017
387.01	0.37386
387.221	1.82216
387.432	1.21769
387.643	2.51919
387.854	1.2953
388.065	1.19525
388.275	1.27343
388.486	1.17625
388.697	1.41487
388.908	1.1863
389.119	2.11527
389.329	2.29549
389.54	1.37455
389.751	1.61306
389.962	2.07418
390.172	1.5766
390.383	1.12073
390.594	0.96544
390.804	0.94591
391.015	1.06401
391.226	1.41147
391.436	1.68353
391.647	1.69262
391.858	1.69242
392.068	0.53735
392.279	0.80613
392.489	1.41896
392.7	2.06486
392.91	0.95138
393.121	1.07385
393.331	1.73682
393.542	2.1145
393.752	1.8387
393.963	1.61256
394.173	1.53172
394.384	1.87784
394.594	1.37816
394.804	0.84135
395.015	1.48068
395.225	1.79774
395.436	1.00844
395.646	1.78173
395.856	1.12605
396.067	0.79161
396.277	2.05571
396.487	1.56747
396.697	1.65143
396.908	2.03072
397.118	1.98347
397.328	1.59272
397.538	2.09207
397.749	1.218
397.959	2.04079
398.169	1.95448
398.379	0.91503
398.589	1.94016
398.8	1.76329
399.01	1.50541
399.22	1.53021
399.43	2.83835
399.64	1.39822
399.85	2.01855
400.06	1.54493
400.27	1.28997
400.48	1.61637
400.69	2.44725
400.9	1.37068
401.11	1.35082
401.32	2.26228
401.53	1.44255
401.74	2.45291
401.95	2.18375
402.16	1.21709
402.37	1.92185
402.58	1.35142
402.79	2.00094
403	2.20425
403.209	1.68258
403.419	2.22314
403.629	1.43291
403.839	2.12802
404.049	2.22409
404.258	1.35798
404.468	1.39162
404.678	2.10648
404.888	2.23073
405.097	1.47419
405.307	1.74678
405.517	2.10977
405.727	2.06209
405.936	1.6227
406.146	1.9167
406.356	2.55439
406.565	1.84165
406.775	1.45693
406.984	1.49796
407.194	2.94902
407.404	1.96451
407.613	2.02256
407.823	2.37771
408.032	2.54778
408.242	2.42748
408.451	1.6196
408.661	1.87007
408.87	2.84335
409.08	1.52139
409.289	2.1987
409.499	1.9877
409.708	1.93838
409.918	0.87182
410.127	2.05064
410.336	2.84942
410.546	2.32578
410.755	1.82216
410.964	1.82861
411.174	1.49939
411.383	2.28006
411.592	2.23216
411.802	1.42007
412.011	2.55879
412.22	2.02144
412.429	2.82023
412.639	2.89525
412.848	2.72096
413.057	3.08975
413.266	2.60747
413.475	2.06846
413.685	2.57708
413.894	2.4993
414.103	2.87579
414.312	2.65883
414.521	2.04041
414.73	2.31204
414.939	3.18793
415.148	2.49224
415.357	2.44377
415.566	2.25384
415.776	2.01508
415.985	1.94725
416.194	2.63981
416.403	3.32523
416.611	1.62573
416.82	2.07349
417.029	2.64534
417.238	2.35429
417.447	2.11698
417.656	2.65673
417.865	2.53599
418.074	2.72447
418.283	3.14095
418.492	3.92028
418.7	3.7844
418.909	4.93539
419.118	3.83165
419.327	4.14064
419.536	3.78459
419.744	3.84644
419.953	5.06953
420.162	4.98145
420.371	3.96282
420.579	4.17631
420.788	5.15979
420.997	5.30744
421.205	5.35907
421.414	5.0324
421.623	5.24119
421.831	4.67104
422.04	5.32657
422.249	4.65253
422.457	5.06016
422.666	4.42692
422.874	5.43229
423.083	5.54343
423.291	5.1689
423.5	4.90172
423.708	5.37626
423.917	5.90993
424.125	5.20198
424.334	5.03822
424.542	6.95363
424.751	6.11525
424.959	5.88615
425.167	6.19017
425.376	6.11999
425.584	5.12526
425.793	5.24167
426.001	4.29831
426.209	5.04799
426.418	3.93924
426.626	3.78655
426.834	3.37025
427.042	3.71175
427.251	3.28378
427.459	3.97208
