Data from WindowProjectSample3_Transmission__50__00050.txt Node

Date: Sun May 04 11:20:34 EDT 2025
User: jessi
Spectrometer: SR400872
Trigger mode: 0
Integration Time (sec): 5.000050E-1
Scans to average: 20
Electric dark correction enabled: true
Nonlinearity correction enabled: true
Boxcar width: 0
XAxis mode: Wavelengths
Number of Pixels in Spectrum: 3648
>>>>>Begin Spectral Data<<<<<
184.909	-1263.17888
185.132	-1450.67539
185.355	-1159.91204
185.578	-1078.68741
185.801	1365.92885
186.024	-946.12463
186.247	-5190.87413
186.47	-1690.6309
186.693	-160.74926
186.916	-471.65133
187.139	-781.23688
187.362	-2748.96597
187.585	-681.00727
187.808	-5096.66311
188.031	10242.83714
188.254	-2306.74833
188.476	-8738.38419
188.699	-1045.00596
188.922	570.83416
189.145	-1201.44116
189.368	3415.03844
189.591	-2245.15771
189.813	-1544.3773
190.036	-906.13305
190.259	-1129.39776
190.482	-1558.65518
190.705	-2373.89032
190.927	-710.85471
191.15	-1506.55557
191.373	-1113.81079
191.595	-1256.6179
191.818	-1345.87092
192.041	-711.0428
192.263	-1100.26575
192.486	-547.1347
192.709	-1535.3246
192.931	-3225.09479
193.154	-1167.87771
193.377	-1636.67864
193.599	-2908.77163
193.822	-3315.58017
194.044	-3159.0394
194.267	-1769.66242
194.489	131.68098
194.712	-959.24982
194.934	-1732.27432
195.157	-734.3733
195.379	-1273.3193
195.602	-831.03297
195.824	-1350.64766
196.047	-2003.54444
196.269	-1082.73454
196.492	-1403.46557
196.714	-1239.66726
196.936	-1249.97239
197.159	-881.39231
197.381	-727.09534
197.604	-423.90602
197.826	-2081.96994
198.048	-1120.31896
198.271	-1612.16589
198.493	-1128.64339
198.715	-911.76453
198.938	-3152.63261
199.16	-4037.78405
199.382	-1238.56012
199.604	-1144.86197
199.827	-1935.99274
200.049	-1601.537
200.271	-1225.70547
200.493	-1411.15378
200.715	-954.1633
200.938	-845.2759
201.16	-943.92929
201.382	-1045.79513
201.604	-1274.55298
201.826	-734.89157
202.048	-879.33569
202.27	-1367.90787
202.492	-1382.37288
202.715	-1877.33748
202.937	-2079.33964
203.159	-1400.14499
203.381	-1562.73221
203.603	-1015.39559
203.825	-5173.89326
204.047	-1588.93406
204.269	-1350.12507
204.491	-1211.54499
204.713	-1488.62904
204.935	-1400.62559
205.156	-2488.89215
205.378	-2764.99605
205.6	-1459.64823
205.822	-1101.06218
206.044	1196.51476
206.266	-1304.05814
206.488	-868.25373
206.71	-1724.72817
206.932	-1698.01772
207.153	-1093.13151
207.375	-1254.13679
207.597	-1078.71992
207.819	-1108.85869
208.041	-1184.37439
208.262	-1685.63115
208.484	-882.66835
208.706	-2110.0828
208.927	-781.99773
209.149	-1353.18885
209.371	-1174.40686
209.593	-1753.91015
209.814	-580.83817
210.036	-897.57539
210.258	-731.73407
210.479	-1098.67514
210.701	-1690.95592
210.922	-1231.44916
211.144	-1005.37289
211.366	-1116.07803
211.587	1494.62844
211.809	-1109.3447
212.03	-6366.22133
212.252	903.03791
212.473	-957.48524
212.695	-18266.47382
212.916	-3385.05477
213.138	-1222.38172
213.359	-959.55689
213.581	-1470.13208
213.802	-900.09097
214.024	-1351.78844
214.245	-11704.00301
214.466	-859.1146
214.688	-1390.06111
214.909	-951.04782
215.131	-2757.34363
215.352	-3728.80607
215.573	-1085.67628
215.795	-1746.58116
216.016	-1482.09711
216.237	-3135.18706
216.459	-1443.8152
216.68	-1075.85573
216.901	-1515.04685
217.122	11090.57379
217.344	-954.7827
217.565	-1290.05188
217.786	-1295.23199
218.007	-993.75107
218.228	-1194.2813
218.45	-1104.43013
218.671	-1124.90802
218.892	-940.55533
219.113	-1609.36942
219.334	-91.83047
219.555	-1537.27627
219.776	-1525.42868
219.997	-1249.63055
220.219	16995.3492
220.44	-1155.74259
220.661	-3189.18653
220.882	-921.13928
221.103	1680.91068
221.324	-2626.08794
221.545	-1175.95684
221.766	-1296.12689
221.987	-1837.41832
222.208	-2022.71805
222.429	-757.71042
222.65	-811.53995
222.87	-1750.33958
223.091	-3433.73399
223.312	2968.00595
223.533	-1166.31605
223.754	-1563.60345
223.975	-2249.29689
224.196	8714.40196
224.417	-7730.05971
224.637	3966.05161
224.858	146.98131
225.079	-1891.30286
225.3	26301.02131
225.521	-1030.4691
225.741	-5034.81764
225.962	7326.19884
226.183	365.27886
226.404	-3622.09358
226.624	2424.32933
226.845	-84579.56551
227.066	-622443.52725
227.286	914.56311
227.507	312.72569
227.728	273.54923
227.948	670.08174
228.169	175.69511
228.389	171.50371
228.61	93.04975
228.831	134.78127
229.051	7.63944
229.272	70.83511
229.492	104.52179
229.713	27.15817
229.933	70.42354
230.154	62.94559
230.374	100.57492
230.595	70.34184
230.815	45.56742
231.036	75.23247
231.256	-6.64942
231.477	125.7503
231.697	75.9245
231.917	81.95385
232.138	117.57847
232.358	236.72477
232.579	187.8289
232.799	33.29713
233.019	194.92873
233.24	239.05555
233.46	78.49294
233.68	125.72095
233.901	72.90402
234.121	55.80905
234.341	20.59135
234.561	-7.87065
234.782	35.55942
235.002	132.09854
235.222	-4.83401
235.442	117.40273
235.662	58.32946
235.883	111.50857
236.103	96.94819
236.323	61.96921
236.543	54.16668
236.763	73.86669
236.983	79.53527
237.203	78.15066
237.423	112.61118
237.643	165.37446
237.864	146.40599
238.084	36.00173
238.304	47.50274
238.524	84.46666
238.744	76.92544
238.964	128.93708
239.184	113.14524
239.404	121.97661
239.624	64.14811
239.843	111.8446
240.063	61.36877
240.283	42.28708
240.503	43.99473
240.723	45.18919
240.943	27.67751
241.163	35.71046
241.383	24.38132
241.603	13.66739
241.822	15.08847
242.042	10.64227
242.262	14.07321
242.482	15.42563
242.702	17.3148
242.921	5.24743
243.141	11.04076
243.361	10.40142
243.581	14.9109
243.8	13.30415
244.02	8.59582
244.24	14.52585
244.459	14.10787
244.679	29.29228
244.899	18.62051
245.118	22.86794
245.338	19.91312
245.558	23.49933
245.777	14.32175
245.997	17.48009
246.216	17.57555
246.436	10.48714
246.655	7.26747
246.875	5.90251
247.094	10.07435
247.314	3.64818
247.533	6.45651
247.753	6.895
247.972	5.43859
248.192	2.3552
248.411	3.36447
248.631	5.50539
248.85	6.78286
249.07	6.63792
249.289	10.08923
249.508	7.28378
249.728	11.77106
249.947	11.52935
250.166	14.25851
250.386	7.70553
250.605	11.45134
250.824	19.04795
251.044	13.3826
251.263	38.65126
251.482	22.77064
251.701	18.64532
251.921	0.22992
252.14	6.27431
252.359	7.69967
252.578	16.57172
252.798	5.97471
253.017	14.36792
253.236	7.56268
253.455	9.59857
253.674	17.6926
253.893	8.56862
254.112	13.44849
254.331	19.52525
254.551	16.05324
254.77	7.75046
254.989	21.58493
255.208	17.61692
255.427	25.97809
255.646	22.42619
255.865	33.41485
256.084	15.44722
256.303	17.78273
256.522	22.73593
256.741	5.6478
256.96	5.20418
257.179	14.45096
257.397	18.33362
257.616	9.36215
257.835	9.40381
258.054	25.01913
258.273	17.50535
258.492	17.96661
258.711	11.3291
258.93	5.04937
259.148	7.67003
259.367	7.3711
259.586	9.35036
259.805	4.2675
260.023	7.73538
260.242	5.78107
260.461	4.34992
260.68	2.29457
260.898	6.60599
261.117	2.24891
261.336	1.46707
261.554	5.67628
261.773	5.68069
261.992	1.33168
262.21	5.20213
262.429	6.14832
262.648	10.73719
262.866	12.69402
263.085	9.14843
263.303	7.82092
263.522	14.18171
263.74	13.88172
263.959	23.64302
264.178	12.28959
264.396	11.06347
264.615	7.86618
264.833	17.86866
265.051	14.68495
265.27	17.60539
265.488	17.6749
265.707	10.91089
265.925	17.64422
266.144	8.57862
266.362	9.46663
266.58	10.2067
266.799	8.26936
267.017	9.4679
267.235	8.19659
267.454	5.89299
267.672	3.22843
267.89	7.24587
268.109	7.59922
268.327	7.36525
268.545	1.85115
268.763	6.55967
268.982	3.27085
269.2	7.90288
269.418	4.74569
269.636	4.04084
269.854	7.48703
270.073	5.53722
270.291	3.36071
270.509	2.99958
270.727	7.2725
270.945	11.72465
271.163	11.6049
271.381	2.82135
271.599	5.09963
271.817	8.19032
272.036	2.75554
272.254	5.82028
272.472	3.96555
272.69	4.09131
272.908	4.04749
273.126	6.50799
273.344	8.41528
273.562	3.04663
273.779	4.51994
273.997	6.76476
274.215	6.48164
274.433	4.72766
274.651	6.94584
274.869	7.16949
275.087	4.59001
275.305	6.55374
275.523	4.4818
275.74	5.1531
275.958	8.8811
276.176	13.0189
276.394	4.00421
276.612	5.38639
276.829	5.25379
277.047	4.74922
277.265	4.73514
277.483	5.89804
277.7	6.45667
277.918	5.61476
278.136	10.25937
278.353	5.08656
278.571	2.92521
278.789	7.84094
279.006	1.862
279.224	4.72413
279.442	7.93513
279.659	6.01308
279.877	3.97975
280.094	8.30856
280.312	1.86843
280.529	5.85947
280.747	2.00561
280.964	4.83871
281.182	9.0438
281.399	4.6495
281.617	5.96947
281.834	4.18907
282.052	2.95137
282.269	5.43742
282.487	4.33771
282.704	3.78924
282.921	3.52394
283.139	5.32857
283.356	6.88478
283.574	6.57548
283.791	3.21387
284.008	8.50817
284.226	4.86079
284.443	5.51497
284.66	6.95915
284.877	5.61262
285.095	3.62194
285.312	2.77242
285.529	1.67702
285.746	1.39853
285.964	3.4545
286.181	2.37915
286.398	3.17506
286.615	4.37421
286.832	4.25837
287.05	1.12418
287.267	3.09107
287.484	3.15206
287.701	4.50024
287.918	4.12297
288.135	4.37911
288.352	1.91844
288.569	2.48648
288.786	4.25034
289.003	3.2131
289.22	5.1084
289.437	2.9613
289.654	4.66614
289.871	4.84895
290.088	4.71395
290.305	3.77174
290.522	3.30889
290.739	3.36295
290.956	4.99397
291.173	5.82523
291.39	5.53939
291.607	3.82342
291.824	3.32156
292.04	2.30233
292.257	4.64795
292.474	5.28586
292.691	3.47189
292.908	1.74861
293.125	2.96371
293.341	1.98161
293.558	8.15947
293.775	3.74091
293.992	3.98925
294.208	1.50683
294.425	2.40612
294.642	3.04518
294.858	4.48303
295.075	1.27576
295.292	3.40397
295.508	4.16399
295.725	5.66872
295.942	2.94213
296.158	2.02767
296.375	3.3461
296.591	2.71798
296.808	2.60345
297.024	3.21304
297.241	3.58582
297.458	3.76266
297.674	0.39131
297.891	2.98286
298.107	2.39864
298.323	1.85794
298.54	4.16026
298.756	2.17086
298.973	0.94311
299.189	4.49075
299.406	2.05924
299.622	4.56346
299.838	4.69839
300.055	4.16847
300.271	0.9589
300.487	1.77344
300.704	2.08629
300.92	1.31328
301.136	6.19609
301.353	4.86317
301.569	3.35119
301.785	3.52552
302.001	4.19124
302.218	3.8808
302.434	3.99349
302.65	1.37361
302.866	2.48718
303.083	6.60182
303.299	6.27835
303.515	3.24191
303.731	3.56511
303.947	1.37769
304.163	2.43154
304.379	3.43573
304.595	3.97929
304.812	2.31831
305.028	2.09248
305.244	2.72049
305.46	4.31985
305.676	4.46665
305.892	5.34605
306.108	3.97783
306.324	2.78391
306.54	5.94197
306.756	4.09921
306.972	4.0633
307.187	2.83176
307.403	5.8231
307.619	2.48052
307.835	5.22782
308.051	5.23188
308.267	1.7715
308.483	4.73598
308.699	3.88079
308.914	3.20362
309.13	3.20195
309.346	0.80299
309.562	1.6076
309.778	0.96253
309.993	4.04713
310.209	3.00255
310.425	1.50968
310.641	2.72634
310.856	1.7114
311.072	1.53855
311.288	2.96715
311.503	3.24168
311.719	0.6754
311.935	0.46076
312.15	3.48614
312.366	3.09472
312.581	3.7613
312.797	2.6266
313.013	3.98048
313.228	2.29294
313.444	3.10529
313.659	2.01027
313.875	3.54229
314.09	3.1198
314.306	5.15949
314.521	4.46857
314.737	4.13985
314.952	3.60265
315.168	3.20433
315.383	3.90454
315.599	2.9767
315.814	2.94196
316.029	4.56273
316.245	1.52539
316.46	1.07474
316.675	5.13341
316.891	6.18377
317.106	7.70157
317.321	4.26285
317.537	3.96587
317.752	4.41359
317.967	4.49578
318.183	2.32496
318.398	2.72211
318.613	4.70227
318.828	5.42404
319.043	4.68571
319.259	3.12902
319.474	3.49376
319.689	5.10398
319.904	0.89045
320.119	4.56483
320.334	3.94415
320.549	3.05412
320.765	5.04389
320.98	3.82296
321.195	4.70945
321.41	3.12964
321.625	4.62455
321.84	6.15539
322.055	6.21323
322.27	2.45484
322.485	1.87217
322.7	3.97684
322.915	5.1749
323.13	2.1079
323.345	5.53502
323.56	4.11982
323.775	4.50311
323.989	4.36279
324.204	3.74861
324.419	4.64748
324.634	1.49008
324.849	3.31635
325.064	6.23798
325.279	4.76908
325.493	4.21384
325.708	4.97506
325.923	2.22697
326.138	2.31088
326.352	5.94714
326.567	4.73193
326.782	2.99909
326.997	2.34349
327.211	4.22818
327.426	4.18826
327.641	2.97408
327.855	1.05703
328.07	4.32834
328.285	5.99379
328.499	3.0708
328.714	3.92357
328.928	4.92451
329.143	3.46724
329.358	5.16072
329.572	4.86174
329.787	5.47346
330.001	7.5285
330.216	1.56504
330.43	6.14158
330.645	6.11976
330.859	4.8079
331.074	2.36373
331.288	3.91427
331.503	5.78782
331.717	1.98821
331.931	3.32897
332.146	3.82327
332.36	6.44626
332.575	4.2602
332.789	3.86665
333.003	3.20571
333.218	4.34453
333.432	2.59613
333.646	4.66661
333.86	5.87744
334.075	6.39128
334.289	2.75201
334.503	2.06694
334.717	4.14029
334.932	4.302
335.146	5.28548
335.36	2.8551
335.574	4.28785
335.788	4.2088
336.003	5.24798
336.217	4.61434
336.431	4.29102
336.645	2.75467
336.859	2.00675
337.073	3.43364
337.287	3.85457
337.501	2.24939
337.715	4.06057
337.929	4.42238
338.143	1.92853
338.357	3.45306
338.571	2.41029
338.785	4.29896
338.999	2.7386
339.213	2.71649
339.427	1.49953
339.641	5.32693
339.855	3.00269
340.069	2.45346
340.283	4.9758
340.497	5.64352
340.711	4.01861
340.924	3.08432
341.138	2.15729
341.352	1.64978
341.566	3.65062
341.78	0.90345
341.993	2.60865
342.207	2.02183
342.421	3.55471
342.635	3.23116
342.848	2.55786
343.062	0.53087
343.276	2.34105
343.49	6.43673
343.703	2.62001
343.917	4.4929
344.131	4.52986
344.344	2.34931
344.558	2.55051
344.771	2.07881
344.985	5.02357
345.199	5.6674
345.412	3.62376
345.626	3.65956
345.839	0.94043
346.053	1.76022
346.266	1.84345
346.48	4.22141
346.693	3.71308
346.907	3.83742
347.12	2.07658
347.334	3.55176
347.547	3.76118
347.76	2.78861
347.974	4.92385
348.187	3.70668
348.401	2.95764
348.614	2.53262
348.827	2.84482
349.041	3.89893
349.254	0.92904
349.467	2.98683
349.681	1.51541
349.894	2.7399
350.107	5.00338
350.32	5.72102
350.534	1.24142
350.747	2.77144
350.96	1.99078
351.173	2.14865
351.386	2.49558
351.6	2.57224
351.813	2.17762
352.026	3.28037
352.239	1.25976
352.452	2.84466
352.665	4.53798
352.878	2.73376
353.092	6.09216
353.305	3.97408
353.518	3.39058
353.731	2.06411
353.944	4.45693
354.157	2.2765
354.37	1.8786
354.583	1.69743
354.796	0.83404
355.009	4.82372
355.222	3.14613
355.435	3.00378
355.647	4.47675
355.86	1.71794
356.073	2.9162
356.286	2.35784
356.499	3.98677
356.712	3.71198
356.925	3.39169
357.138	4.29003
357.35	1.60725
357.563	2.46464
357.776	2.9993
357.989	2.52696
358.201	3.58472
358.414	3.00292
358.627	4.23688
358.84	2.40987
359.052	1.55933
359.265	1.45254
359.478	4.05065
359.69	-0.40327
359.903	3.78812
360.116	3.82919
360.328	0.73081
360.541	3.7761
360.753	1.53785
360.966	1.99358
361.179	1.95945
361.391	1.86677
361.604	1.3563
361.816	1.90479
362.029	1.625
362.241	1.42838
362.454	1.78565
362.666	1.52286
362.879	2.43229
363.091	2.11013
363.304	1.4732
363.516	2.38543
363.728	0.9835
363.941	3.34706
364.153	1.77572
364.366	-0.15874
364.578	1.25597
364.79	3.03138
365.003	2.30337
365.215	1.98538
365.427	3.18838
365.639	3.98
365.852	2.77851
366.064	4.80169
366.276	1.82058
366.488	3.07513
366.701	2.03573
366.913	2.18705
367.125	2.37623
367.337	1.70123
367.549	1.85408
367.762	2.63249
367.974	2.64488
368.186	1.58438
368.398	3.8299
368.61	3.34308
368.822	3.3823
369.034	2.4831
369.246	3.31619
369.458	5.42153
369.67	1.39806
369.882	4.9067
370.094	0.19893
370.306	4.6423
370.518	2.17863
370.73	1.8748
370.942	1.50624
371.154	2.28784
371.366	1.78482
371.578	2.8468
371.79	1.46987
372.002	4.04257
372.214	4.45997
372.425	2.80813
372.637	4.10583
372.849	2.80745
373.061	-0.05138
373.273	3.11139
373.484	3.2991
373.696	3.52172
373.908	-0.04511
374.12	3.94966
374.331	2.92643
374.543	1.52193
374.755	1.40023
374.967	2.74309
375.178	3.50204
375.39	2.24962
375.602	2.55427
375.813	0.85743
376.025	0.91536
376.236	2.2017
376.448	2.55312
376.66	1.94667
376.871	1.81952
377.083	3.4296
377.294	3.5778
377.506	1.83691
377.717	3.88987
377.929	2.59567
378.14	1.29815
378.352	2.98032
378.563	2.73853
378.775	3.85852
378.986	1.55177
379.197	2.35344
379.409	1.70324
379.62	3.40714
379.832	2.66152
380.043	2.19127
380.254	2.70684
380.466	0.96586
380.677	5.72365
380.888	5.16797
381.1	5.52549
381.311	5.26023
381.522	2.34324
381.733	6.03443
381.945	2.20992
382.156	2.75631
382.367	1.67649
382.578	5.64829
382.789	5.60385
383.001	1.8954
383.212	4.11608
383.423	4.19149
383.634	3.73241
383.845	2.9183
384.056	1.8154
384.267	2.34008
384.478	2.28051
384.69	1.20795
384.901	3.00937
385.112	2.87601
385.323	4.29232
385.534	2.92922
385.745	2.62042
385.956	2.894
386.167	1.20605
386.378	3.16982
386.588	0.97411
386.799	1.58883
387.01	0.52684
387.221	3.40757
387.432	2.33935
387.643	4.67413
387.854	2.19797
388.065	2.00731
388.275	2.16002
388.486	1.94902
388.697	2.4493
388.908	2.0338
389.119	3.88727
389.329	4.39663
389.54	2.64998
389.751	2.93069
389.962	3.93273
390.172	2.81176
390.383	1.83375
390.594	1.72172
390.804	1.64515
391.015	1.88726
391.226	2.57156
391.436	3.10236
391.647	2.72652
391.858	3.04746
392.068	0.58641
392.279	1.07096
392.489	2.40008
392.7	3.58037
392.91	1.24123
393.121	1.71999
393.331	2.97936
393.542	3.87602
393.752	2.61511
393.963	2.58262
394.173	2.49028
394.384	3.16987
394.594	2.43699
394.804	1.15601
395.015	2.58237
395.225	3.18406
395.436	1.22531
395.646	3.1996
395.856	1.64106
396.067	1.05238
396.277	3.72306
396.487	3.08031
396.697	2.5137
396.908	3.55072
397.118	3.50892
397.328	2.79343
397.538	3.81016
397.749	1.89856
397.959	3.62903
398.169	3.4402
398.379	1.15693
398.589	3.64386
398.8	2.69487
399.01	2.66244
399.22	2.45548
399.43	5.2101
399.64	2.35752
399.85	3.35448
400.06	2.67298
400.27	2.20689
400.48	2.91411
400.69	4.55156
400.9	2.2287
401.11	2.00407
401.32	3.81972
401.53	2.29851
401.74	4.67817
401.95	3.69326
402.16	1.87713
402.37	3.55761
402.58	2.23898
402.79	3.7162
403	3.8351
403.209	2.26554
403.419	3.82898
403.629	2.27695
403.839	3.68455
404.049	3.82389
404.258	2.0083
404.468	1.82214
404.678	3.5385
404.888	3.61181
405.097	1.84894
405.307	2.7585
405.517	3.45883
405.727	3.12505
405.936	2.50906
406.146	3.20842
406.356	4.41182
406.565	2.99011
406.775	2.43484
406.984	2.66128
407.194	4.8383
407.404	3.2552
407.613	3.47653
407.823	4.0031
408.032	4.58182
408.242	4.29724
408.451	2.53414
408.661	3.0873
408.87	5.20651
409.08	2.64732
409.289	3.55169
409.499	3.36968
409.708	3.31898
409.918	1.08868
410.127	3.26326
410.336	5.09122
410.546	3.90962
410.755	2.88761
410.964	2.76844
411.174	2.5894
411.383	3.87792
411.592	3.88486
411.802	2.33592
412.011	4.56954
412.22	3.53534
412.429	5.20503
412.639	4.90415
412.848	5.02428
413.057	5.27479
413.266	4.64251
413.475	3.42903
413.685	4.39867
413.894	4.43517
414.103	4.78022
414.312	4.44941
414.521	3.5495
414.73	3.77466
414.939	5.61365
415.148	4.27192
415.357	3.99353
415.566	3.35403
415.776	3.20187
415.985	2.98288
416.194	4.38182
416.403	5.19141
416.611	2.30318
416.82	2.98565
417.029	3.6725
417.238	2.75151
417.447	2.61908
417.656	3.01851
417.865	2.75118
418.074	3.02796
418.283	3.27173
418.492	4.06595
418.7	3.96667
418.909	4.81597
419.118	3.45231
419.327	3.68484
419.536	3.46158
419.744	2.84388
419.953	4.20103
420.162	4.15197
420.371	2.74116
420.579	2.53622
420.788	3.72298
420.997	3.69424
421.205	3.6909
421.414	3.30022
421.623	3.31566
421.831	2.90546
422.04	3.78552
422.249	2.89995
422.457	3.68505
422.666	3.08606
422.874	4.19253
423.083	4.16965
423.291	4.0549
423.5	3.65125
423.708	3.76774
423.917	4.20577
424.125	3.61738
424.334	3.27983
424.542	5.24239
424.751	4.36482
424.959	4.26139
425.167	4.66114
425.376	4.54161
425.584	4.00088
425.793	4.4063
