Data from WindowProjectSample3_Transmission__20__00020.txt Node

Date: Sun May 04 10:06:03 EDT 2025
User: jessi
Spectrometer: SR400872
Trigger mode: 0
Integration Time (sec): 5.000070E-1
Scans to average: 10
Electric dark correction enabled: true
Nonlinearity correction enabled: true
Boxcar width: 0
XAxis mode: Wavelengths
Number of Pixels in Spectrum: 3648
>>>>>Begin Spectral Data<<<<<
184.909	0.16733
185.132	4.85823
185.355	2.5907
185.578	0.89643
185.801	-46.83548
186.024	4.41297
186.247	10.47006
186.47	7.66912
186.693	-73.83667
186.916	-10.06129
187.139	0.49162
187.362	-3.67726
187.585	0.00468
187.808	0.21137
188.031	20.82444
188.254	-3.45961
188.476	-6.37238
188.699	-1.74156
188.922	-19.10895
189.145	-0.17276
189.368	7.5887
189.591	6.6301
189.813	5.85719
190.036	-3.10618
190.259	0.65589
190.482	2.1985
190.705	-0.40009
190.927	-5.57362
191.15	-2.07095
191.373	5.37366
191.595	-1.99423
191.818	-0.2419
192.041	-25.72322
192.263	7.8872
192.486	-8.27323
192.709	2.14366
192.931	2.64979
193.154	-0.54639
193.377	2.58657
193.599	-2.60409
193.822	-5.90843
194.044	4.18991
194.267	-14.68616
194.489	120.98286
194.712	2.34358
194.934	2.12465
195.157	-1.33517
195.379	4.92605
195.602	7.46548
195.824	-3.07953
196.047	14.27783
196.269	1.88207
196.492	1.4662
196.714	0.50197
196.936	2.35957
197.159	-1.36411
197.381	1.43063
197.604	0.97963
197.826	-4.45106
198.048	-8.43113
198.271	-2.87769
198.493	4.79275
198.715	-4.50825
198.938	3.5306
199.16	-4.58127
199.382	3.20515
199.604	3.21586
199.827	6.85373
200.049	-1.41982
200.271	-0.26247
200.493	0.37914
200.715	0.67612
200.938	3.90605
201.16	3.90843
201.382	-1.07002
201.604	3.61934
201.826	2.57528
202.048	-2.26138
202.27	10.53212
202.492	6.55619
202.715	4.42651
202.937	0.49319
203.159	1.72914
203.381	8.15618
203.603	3.2676
203.825	0.40582
204.047	-3.77331
204.269	0.92272
204.491	-3.63985
204.713	-4.92257
204.935	-0.02484
205.156	3.11682
205.378	6.57501
205.6	7.16937
205.822	0.45689
206.044	6.07926
206.266	-6.7008
206.488	-4.18827
206.71	3.69135
206.932	4.23715
207.153	1.4077
207.375	4.36589
207.597	5.08904
207.819	0.92671
208.041	2.83983
208.262	-22.15729
208.484	5.84656
208.706	4.07963
208.927	2.70056
209.149	0.64673
209.371	-0.60267
209.593	0.49206
209.814	10.20624
210.036	12.37605
210.258	8.41568
210.479	0.16268
210.701	7.47787
210.922	1.04933
211.144	-10.46144
211.366	1.44789
211.587	10.75664
211.809	3.30494
212.03	2.64971
212.252	6.678
212.473	6.06922
212.695	3.13905
212.916	-2.63178
213.138	1.75055
213.359	1.97457
213.581	0.37348
213.802	9.09453
214.024	-0.61852
214.245	2.6989
214.466	23.46311
214.688	2.88253
214.909	-7.32514
215.131	4.53964
215.352	7.21019
215.573	0.41333
215.795	0.38743
216.016	-4.18323
216.237	1.20562
216.459	5.36723
216.68	-5.97765
216.901	1.59417
217.122	-11.43417
217.344	-1.98426
217.565	1.0568
217.786	2.90707
218.007	-3.15918
218.228	12.95009
218.45	-0.18591
218.671	-1.36804
218.892	2.80843
219.113	-4.30417
219.334	-49.24192
219.555	-2.28247
219.776	0.13475
219.997	-3.30756
220.219	4.06158
220.44	7.77034
220.661	11.24896
220.882	-0.73063
221.103	8.20172
221.324	-2.52937
221.545	1.09863
221.766	-1.28861
221.987	-8.77545
222.208	-8.82309
222.429	1.57627
222.65	4.97675
222.87	-5.52072
223.091	7.47107
223.312	3.48455
223.533	1.56399
223.754	-0.90882
223.975	4.01668
224.196	11.9847
224.417	-6.1192
224.637	-7.84627
224.858	48.14427
225.079	4.65729
225.3	-0.29804
225.521	0.24436
225.741	-1.7743
225.962	-6.90919
226.183	-31.77175
226.404	6.32157
226.624	1.3888
226.845	2.99998
227.066	6.17986
227.286	0.32514
227.507	-14.70977
227.728	-3.21109
227.948	0.79782
228.169	17.52221
228.389	6.04488
228.61	10.16428
228.831	-0.1561
229.051	-1.08309
229.272	1.73275
229.492	-1.23469
229.713	-0.37161
229.933	-3.92298
230.154	0.65818
230.374	-0.7262
230.595	-3.803
230.815	-4.42611
231.036	-2.0763
231.256	-3.01658
231.477	30.41351
231.697	-0.85157
231.917	-4.87059
232.138	16.58448
232.358	3.82854
232.579	11.46169
232.799	3.9429
233.019	-66.01436
233.24	16.36624
233.46	4.95263
233.68	-29.35223
233.901	1.84993
234.121	-1.64119
234.341	1.91149
234.561	-4.68248
234.782	-4.93602
235.002	-13.14225
235.222	0.6311
235.442	1.80379
235.662	3.39006
235.883	-15.06338
236.103	5.33347
236.323	9.39633
236.543	3.55533
236.763	3.00106
236.983	-0.525
237.203	0.16834
237.423	-2.71546
237.643	-38.26034
237.864	14.33131
238.084	4.49922
238.304	5.20566
238.524	-1.73994
238.744	-4.13572
238.964	2.93279
239.184	3.08794
239.404	1.86914
239.624	2.70362
239.843	-5.27187
240.063	-4.74845
240.283	3.68443
240.503	-1.18384
240.723	-1.54196
240.943	0.48993
241.163	-0.14957
241.383	7.23952
241.603	-0.04651
241.822	0.29912
242.042	-1.13092
242.262	0.2438
242.482	0.29958
242.702	-0.05829
242.921	-0.82879
243.141	0.20756
243.361	0.30563
243.581	-0.47937
243.8	0.65818
244.02	0.00465
244.24	0.52969
244.459	0.0563
244.679	0.8628
244.899	-0.18496
245.118	-0.44922
245.338	-1.91864
245.558	-0.65334
245.777	0.24954
245.997	0.07301
246.216	-0.52066
246.436	-0.17456
246.655	-0.09556
246.875	0.31453
247.094	0.02815
247.314	-0.00991
247.533	0.28312
247.753	-0.24059
247.972	-0.28389
248.192	-0.06855
248.411	-0.21723
248.631	-0.38462
248.85	0.08232
249.07	-0.26295
249.289	0.01181
249.508	-0.05719
249.728	0.10613
249.947	0.20652
250.166	0.03744
250.386	0.11323
250.605	-0.97636
250.824	-0.54129
251.044	-1.66095
251.263	0.14753
251.482	-0.75688
251.701	-0.09
251.921	-0.58527
252.14	-0.45345
252.359	-0.32727
252.578	-0.30071
252.798	-0.52526
253.017	0.47727
253.236	0.00673
253.455	0.23708
253.674	-0.81899
253.893	0.51753
254.112	0.4345
254.331	0.23667
254.551	1.27006
254.77	-0.23373
254.989	-0.17651
255.208	1.33378
255.427	0.42376
255.646	-0.98622
255.865	0.41494
256.084	0.67596
256.303	-0.78979
256.522	-1.47978
256.741	0.99404
256.96	0.44807
257.179	0.72362
257.397	-0.92207
257.616	-0.63269
257.835	-0.43193
258.054	-0.42921
258.273	-0.24598
258.492	0.92807
258.711	0.15131
258.93	-0.17655
259.148	0.05881
259.367	-0.01884
259.586	-0.0082
259.805	0.0456
260.023	0.04483
260.242	-0.04995
260.461	-0.07643
260.68	0.02151
260.898	-0.13638
261.117	-0.02434
261.336	0.15569
261.554	0.00826
261.773	0.01743
261.992	-0.20355
262.21	-0.10016
262.429	-0.03954
262.648	0.11557
262.866	0.11542
263.085	-0.22527
263.303	-0.08052
263.522	0.43537
263.74	0.01722
263.959	0.29667
264.178	0.34028
264.396	0.33663
264.615	-0.30631
264.833	1.03807
265.051	0.36485
265.27	-0.88591
265.488	0.42619
265.707	0.01477
265.925	-0.48059
266.144	-0.13772
266.362	-0.05784
266.58	0.17908
266.799	-0.33373
267.017	-0.12429
267.235	0.08904
267.454	-0.06487
267.672	-0.42872
267.89	-0.14802
268.109	0.51854
268.327	0.05016
268.545	0.24022
268.763	-0.17732
268.982	-0.01746
269.2	0.30507
269.418	0.0332
269.636	-0.10871
269.854	0.24285
270.073	0.23399
270.291	0.01573
270.509	-0.24769
270.727	-0.08354
270.945	0.11098
271.163	0.11431
271.381	0.02752
271.599	0.02033
271.817	-0.22843
272.036	0.06803
272.254	-0.00326
272.472	-0.02827
272.69	-0.13813
272.908	-0.12161
273.126	-0.06001
273.344	-0.16183
273.562	-0.24614
273.779	0.14751
273.997	-0.14557
274.215	0.16411
274.433	0.01757
274.651	0.21422
274.869	0.12697
275.087	-0.02406
275.305	-0.24962
275.523	-0.36769
275.74	0.16149
275.958	0.06834
276.176	-0.326
276.394	-0.11878
276.612	-0.51949
276.829	0.10349
277.047	-0.30016
277.265	-0.17999
277.483	-0.02716
277.7	0.17473
277.918	-0.18565
278.136	0.15097
278.353	-0.17047
278.571	-0.0711
278.789	-0.11059
279.006	0.05033
279.224	-0.07544
279.442	0.01555
279.659	-0.18625
279.877	-0.10279
280.094	0.14465
280.312	-0.23703
280.529	-0.58659
280.747	0.04604
280.964	-0.35165
281.182	-0.11092
281.399	-0.42211
281.617	-0.01091
281.834	0.03465
282.052	-0.17334
282.269	-0.1879
282.487	-0.1634
282.704	-0.21952
282.921	0.09418
283.139	0.09817
283.356	-0.24957
283.574	0.14152
283.791	0.01904
284.008	0.16915
284.226	0.30908
284.443	0.19643
284.66	-0.0093
284.877	0.33462
285.095	-0.19303
285.312	-0.03259
285.529	-0.03794
285.746	-0.04238
285.964	-0.02133
286.181	0.30571
286.398	-0.1372
286.615	0.12599
286.832	-0.09625
287.05	0.11859
287.267	-0.16037
287.484	0.04175
287.701	0.07726
287.918	0.00167
288.135	0.13794
288.352	-0.01918
288.569	-0.05071
288.786	0.11438
289.003	-0.01814
289.22	0.0154
289.437	-0.10926
289.654	-0.01995
289.871	0.06443
290.088	-0.11059
290.305	0.23932
290.522	0.1111
290.739	0.07568
290.956	0.22448
291.173	-0.05428
291.39	-0.00254
291.607	-0.04187
291.824	-0.38503
292.04	0.16126
292.257	0.12744
292.474	-0.03954
292.691	0.00906
292.908	-0.01469
293.125	-0.06763
293.341	0.02908
293.558	-0.08802
293.775	-0.12459
293.992	-0.08932
294.208	-0.1224
294.425	0.18921
294.642	-0.00722
294.858	-0.0663
295.075	-0.10521
295.292	0.00383
295.508	0.01616
295.725	-0.06487
295.942	-0.05586
296.158	-0.01121
296.375	-0.07754
296.591	0.03188
296.808	-0.03703
297.024	0.01708
297.241	-0.06024
297.458	0.00347
297.674	0.01502
297.891	-0.00671
298.107	0.09833
298.323	-0.03992
298.54	0.10222
298.756	0.03774
298.973	0.14493
299.189	0.11382
299.406	0.15648
299.622	0.05265
299.838	0.15851
300.055	0.09814
300.271	-0.04309
300.487	0.17251
300.704	0.29181
300.92	0.42857
301.136	0.29691
301.353	0.19885
301.569	0.27466
301.785	0.1231
302.001	-0.00511
302.218	0.23545
302.434	0.45924
302.65	0.24178
302.866	0.06921
303.083	0.33841
303.299	0.3828
303.515	0.17888
303.731	0.24996
303.947	0.30996
304.163	0.30423
304.379	0.27211
304.595	0.31659
304.812	0.45185
305.028	0.49014
305.244	0.26591
305.46	0.23512
305.676	0.49452
305.892	0.38092
306.108	0.49668
306.324	0.40535
306.54	0.33516
306.756	0.20783
306.972	0.29179
307.187	0.36149
307.403	0.15575
307.619	0.46606
307.835	0.41516
308.051	0.41429
308.267	0.50801
308.483	0.42368
308.699	0.62726
308.914	0.39985
309.13	0.57352
309.346	0.39212
309.562	0.63337
309.778	0.56563
309.993	0.60748
310.209	0.68059
310.425	0.61892
310.641	0.51821
310.856	0.66192
311.072	0.6604
311.288	0.5828
311.503	0.59474
311.719	0.60131
311.935	0.5236
312.15	0.75843
312.366	0.77233
312.581	0.64876
312.797	0.66797
313.013	0.68297
313.228	0.72274
313.444	0.59068
313.659	0.51955
313.875	0.42494
314.09	0.54878
314.306	0.82674
314.521	0.46818
314.737	0.67889
314.952	0.59872
315.168	0.61732
315.383	0.46623
315.599	0.66164
315.814	0.6119
316.029	0.52719
316.245	0.82433
316.46	0.5052
316.675	0.67175
316.891	0.80623
317.106	0.71757
317.321	0.66376
317.537	0.67231
317.752	0.74696
317.967	0.60907
318.183	0.72976
318.398	0.68349
318.613	0.40385
318.828	0.65043
319.043	0.47685
319.259	0.57803
319.474	0.70627
319.689	0.59015
319.904	0.76466
320.119	0.86404
320.334	0.55321
320.549	0.69191
320.765	0.56387
320.98	0.68396
321.195	0.54126
321.41	0.73196
321.625	0.60311
321.84	0.64637
322.055	0.5447
322.27	0.76187
322.485	0.70069
322.7	0.60158
322.915	0.83324
323.13	0.6645
323.345	0.75565
323.56	1.00145
323.775	1.12664
323.989	0.74458
324.204	0.94375
324.419	1.03566
324.634	0.90133
324.849	0.75563
325.064	1.07904
325.279	1.0171
325.493	0.7991
325.708	0.79965
325.923	0.7211
326.138	0.90026
326.352	0.76108
326.567	0.64486
326.782	0.6761
326.997	0.95243
327.211	0.93378
327.426	0.94078
327.641	0.83316
327.855	0.94393
328.07	1.00951
328.285	1.00102
328.499	1.0432
328.714	0.95279
328.928	1.03036
329.143	0.77806
329.358	1.02957
329.572	1.13058
329.787	0.90416
330.001	1.17964
330.216	1.20064
330.43	1.20159
330.645	0.79668
330.859	0.91736
331.074	0.81625
331.288	0.88178
331.503	1.30404
331.717	0.94502
331.931	0.91979
332.146	0.97131
332.36	1.04664
332.575	0.98339
332.789	0.9218
333.003	1.19184
333.218	0.94899
333.432	1.01544
333.646	1.21277
333.86	0.97481
334.075	1.08398
334.289	1.07972
334.503	0.76651
334.717	0.76169
334.932	1.15479
335.146	0.67461
335.36	0.86491
335.574	1.08292
335.788	0.99719
336.003	1.11398
336.217	1.07011
336.431	1.35283
336.645	1.0862
336.859	1.23504
337.073	1.285
337.287	1.07936
337.501	1.14889
337.715	1.33142
337.929	1.20679
338.143	1.23412
338.357	1.15299
338.571	1.46805
338.785	1.36122
338.999	1.38676
339.213	1.47303
339.427	1.15783
339.641	1.30558
339.855	1.02052
340.069	1.21682
340.283	1.08783
340.497	1.19416
340.711	1.44204
340.924	1.40703
341.138	1.15999
341.352	1.23845
341.566	1.30177
341.78	1.16378
341.993	1.33689
342.207	1.32924
342.421	1.33897
342.635	1.37068
342.848	1.72851
343.062	1.22406
343.276	1.41475
343.49	1.60117
343.703	1.25922
343.917	1.37288
344.131	1.66031
344.344	1.61405
344.558	1.35899
344.771	1.39665
344.985	1.39637
345.199	1.72792
345.412	1.47383
345.626	1.55644
345.839	1.54385
346.053	1.53003
346.266	1.48366
346.48	1.5317
346.693	1.61928
346.907	1.56157
347.12	1.43598
347.334	1.49221
347.547	1.44943
347.76	1.57855
347.974	1.39409
348.187	1.42851
348.401	1.44217
348.614	1.37387
348.827	1.42893
349.041	1.27508
349.254	1.41045
349.467	1.30496
349.681	1.66062
349.894	1.40149
350.107	1.55898
350.32	1.62992
350.534	1.67061
350.747	1.54867
350.96	1.38951
351.173	1.58244
351.386	1.55239
351.6	1.72032
351.813	1.46774
352.026	1.69147
352.239	1.70693
352.452	1.60922
352.665	1.44308
352.878	1.67039
353.092	1.5158
353.305	1.74147
353.518	1.63857
353.731	1.71328
353.944	1.69229
354.157	1.72769
354.37	1.64955
354.583	1.64938
354.796	1.82671
355.009	1.5826
355.222	1.60379
355.435	1.69499
355.647	1.74342
355.86	1.7822
356.073	1.73535
356.286	1.77849
356.499	1.87168
356.712	1.85251
356.925	1.66503
357.138	1.92258
357.35	1.87305
357.563	1.56873
357.776	1.91616
357.989	2.02694
358.201	1.8992
358.414	1.9337
358.627	1.83482
358.84	1.82497
359.052	1.91915
359.265	1.93043
359.478	1.96957
359.69	1.84587
359.903	1.9785
360.116	2.06359
360.328	2.00582
360.541	1.95682
360.753	2.15912
360.966	2.05961
361.179	2.09698
361.391	2.03988
361.604	2.12746
361.816	2.14505
362.029	2.17437
362.241	2.11488
362.454	2.1847
362.666	2.06671
362.879	2.14173
363.091	2.08996
363.304	2.13432
363.516	2.01701
363.728	1.9146
363.941	2.01033
364.153	2.13471
364.366	1.90871
364.578	1.88715
364.79	1.74058
365.003	2.14218
365.215	2.12146
365.427	2.16948
365.639	2.05157
365.852	1.8892
366.064	1.77822
366.276	2.14965
366.488	1.90738
366.701	1.96201
366.913	1.96274
367.125	1.89623
367.337	1.9634
367.549	2.06236
367.762	2.11151
367.974	1.7618
368.186	1.99371
368.398	2.1751
368.61	1.998
368.822	1.95223
369.034	1.88055
369.246	1.92909
369.458	2.07857
369.67	1.95558
369.882	1.89288
370.094	1.97421
370.306	1.99859
370.518	2.19959
370.73	2.09993
370.942	1.86826
371.154	2.13534
371.366	2.04673
371.578	2.13895
371.79	2.02676
372.002	1.96863
372.214	2.28486
372.425	1.94983
372.637	1.97715
372.849	1.93463
373.061	1.94186
373.273	2.03254
373.484	1.98086
373.696	1.8187
373.908	1.98679
374.12	1.87558
374.331	2.16426
374.543	1.97932
374.755	1.89203
374.967	1.8839
375.178	2.07622
375.39	1.92677
375.602	2.02808
375.813	1.89058
376.025	2.08425
376.236	2.06151
376.448	2.29188
376.66	2.20171
376.871	2.37094
377.083	2.12543
377.294	2.19336
377.506	2.15493
377.717	2.30373
377.929	2.12365
378.14	2.17893
378.352	2.15046
378.563	2.19116
378.775	2.19059
378.986	2.13719
379.197	2.22763
379.409	2.09419
379.62	2.07416
379.832	1.88755
380.043	2.10851
380.254	2.25714
380.466	2.07258
380.677	2.07602
380.888	2.15072
381.1	2.1226
381.311	2.1936
381.522	2.27456
381.733	2.09806
381.945	2.06802
382.156	2.02879
382.367	2.11789
382.578	2.25017
382.789	2.3251
383.001	1.89117
383.212	2.33074
383.423	2.3277
383.634	2.21001
383.845	2.27331
384.056	2.16145
384.267	2.26224
384.478	2.13308
384.69	2.21806
384.901	2.29253
385.112	2.23195
385.323	2.24823
385.534	2.20282
385.745	2.25552
385.956	2.26393
386.167	2.29135
386.378	2.39098
386.588	2.39315
386.799	2.19712
387.01	2.26965
387.221	2.23779
387.432	2.35521
387.643	2.4057
387.854	2.34277
388.065	2.33263
388.275	2.35549
388.486	2.0609
388.697	2.29838
388.908	2.14534
389.119	2.27742
389.329	2.32542
389.54	2.45528
389.751	2.24804
389.962	2.36443
390.172	2.26448
390.383	2.30139
390.594	2.30181
390.804	2.2385
391.015	2.21755
391.226	2.50092
391.436	2.38079
391.647	2.34322
391.858	2.44589
392.068	2.34266
392.279	2.45753
392.489	2.33164
392.7	2.37247
392.91	2.55476
393.121	2.4376
393.331	2.54204
393.542	2.59205
393.752	2.45246
393.963	2.51812
394.173	2.57651
394.384	2.63804
394.594	2.48696
394.804	2.48411
395.015	2.58025
395.225	2.21132
395.436	2.45655
395.646	2.49475
395.856	2.5068
396.067	2.32095
396.277	2.42046
396.487	2.45996
396.697	2.56188
396.908	2.33315
397.118	2.49468
397.328	2.43365
397.538	2.42895
397.749	2.57428
397.959	2.40134
398.169	2.35955
398.379	2.47301
398.589	2.28985
398.8	2.57837
399.01	2.59668
399.22	2.55247
399.43	2.51749
399.64	2.61195
399.85	2.55707
400.06	2.35606
400.27	2.28173
400.48	2.32763
400.69	2.32485
400.9	2.54898
401.11	2.37735
401.32	2.32147
401.53	2.39828
401.74	2.4111
401.95	2.42029
402.16	2.6714
402.37	2.4179
402.58	2.50699
402.79	2.41488
403	2.60143
403.209	2.6171
403.419	2.51684
403.629	2.49488
403.839	2.61992
404.049	2.61118
404.258	2.78537
404.468	2.64944
404.678	2.84415
404.888	2.67673
405.097	2.93566
405.307	2.69008
405.517	2.73354
405.727	2.65209
405.936	2.6757
406.146	2.64637
406.356	2.71867
406.565	2.70932
406.775	2.73137
406.984	2.66939
407.194	2.66726
407.404	2.46487
407.613	2.78258
407.823	2.55118
408.032	2.83127
408.242	2.59353
408.451	2.58095
408.661	2.67816
408.87	2.67586
409.08	2.48406
409.289	2.6978
409.499	2.82571
409.708	2.72639
409.918	2.6083
410.127	2.79722
410.336	2.82591
410.546	2.80085
410.755	2.57182
410.964	2.69803
411.174	2.59605
411.383	2.78844
411.592	2.59515
411.802	2.81305
412.011	2.51811
412.22	2.68982
412.429	2.72995
412.639	2.54267
412.848	2.36943
413.057	2.87544
413.266	2.64787
413.475	2.75087
413.685	2.657
413.894	2.7078
414.103	2.74736
414.312	2.76928
414.521	2.73607
414.73	3.05283
414.939	2.60193
415.148	2.85216
415.357	2.67569
415.566	2.84894
415.776	2.80283
415.985	2.86609
416.194	2.99452
416.403	2.99069
416.611	2.87356
416.82	2.98688
417.029	2.98418
417.238	2.95025
417.447	3.10483
417.656	3.08038
417.865	3.07037
418.074	3.00996
418.283	3.20486
418.492	3.30354
418.7	3.23736
418.909	3.60821
419.118	3.50307
419.327	3.70551
419.536	3.61226
419.744	3.7871
419.953	4.00878
420.162	4.10479
420.371	4.19273
420.579	4.40387
420.788	4.57333
420.997	4.5673
421.205	4.87338
421.414	4.53466
421.623	4.74319
421.831	4.70139
422.04	4.66274
422.249	4.51637
422.457	4.22574
422.666	4.31039
422.874	4.31885
423.083	4.41384
423.291	4.26404
423.5	4.47058
423.708	4.60424
423.917	4.72882
424.125	4.65957
424.334	4.79608
424.542	4.87809
424.751	4.70183
424.959	4.67699
425.167	4.46515
425.376	4.35488
425.584	4.26849
425.793	4.00653
426.001	3.80828
426.209	3.59275
426.418	3.42889
426.626	3.31458
426.834	3.10327
427.042	3.15942
427.251	3.2326
427.459	3.25807
427.667	3.09521
427.875	3.11796
428.084	3.21298
428.292	3.19629
428.5	3.267
428.708	3.27562
428.916	3.14979
429.124	3.1965
429.333	3.22798
429.541	3.25835
429.749	3.17384
429.957	3.19887
430.165	3.20136
430.373	3.14117
430.581	3.4045
430.789	3.33954
430.997	3.11014
431.205	3.28552
431.413	3.40376
431.621	3.30074
431.829	3.35808
432.037	3.3242
432.245	3.30037
432.453	3.27288
432.661	3.38191
