Data from WindowProjectSample3_Transmission__55__00055.txt Node

Date: Sun May 04 11:29:38 EDT 2025
User: jessi
Spectrometer: SR400872
Trigger mode: 0
Integration Time (sec): 5.000050E-1
Scans to average: 20
Electric dark correction enabled: true
Nonlinearity correction enabled: true
Boxcar width: 0
XAxis mode: Wavelengths
Number of Pixels in Spectrum: 3648
>>>>>Begin Spectral Data<<<<<
184.909	-1295.19481
185.132	-1470.51882
185.355	-1160.94823
185.578	-1074.76196
185.801	1338.35124
186.024	-934.21218
186.247	-4921.80289
186.47	-2011.18102
186.693	-290.46997
186.916	-403.83178
187.139	-786.83887
187.362	-2837.63137
187.585	-691.76965
187.808	-5138.38456
188.031	10547.41288
188.254	-2370.77659
188.476	-8886.67227
188.699	-1050.59341
188.922	510.52783
189.145	-1216.57837
189.368	3186.63959
189.591	-2232.49325
189.813	-1520.07194
190.036	-871.61135
190.259	-1200.93886
190.482	-1528.53142
190.705	-2413.47278
190.927	-725.78434
191.15	-1530.89978
191.373	-1098.0613
191.595	-1289.1643
191.818	-1332.41374
192.041	-702.52348
192.263	-1118.57321
192.486	-558.11494
192.709	-1556.47378
192.931	-3259.1983
193.154	-1165.72564
193.377	-1631.79056
193.599	-3192.89791
193.822	-3400.07386
194.044	-3189.08272
194.267	-1773.42236
194.489	-39.12928
194.712	-966.98821
194.934	-1708.90858
195.157	-700.42294
195.379	-1242.45107
195.602	-849.0034
195.824	-1319.29298
196.047	-2164.77219
196.269	-1051.25987
196.492	-1388.83487
196.714	-1269.54855
196.936	-1239.01854
197.159	-947.95919
197.381	-767.69929
197.604	-474.10741
197.826	-2117.82007
198.048	-1135.57148
198.271	-1448.19752
198.493	-1181.20839
198.715	-961.04519
198.938	-3225.36351
199.16	-4118.64408
199.382	-1262.78907
199.604	-1082.12039
199.827	-1880.59903
200.049	-1675.7326
200.271	-1273.76588
200.493	-1436.08043
200.715	-952.33253
200.938	-846.28901
201.16	-949.70751
201.382	-1010.99884
201.604	-1213.93285
201.826	-751.52996
202.048	-850.40504
202.27	-1476.92147
202.492	-1423.30874
202.715	-1911.27747
202.937	-2020.94028
203.159	-1330.04969
203.381	-1582.88047
203.603	-1035.03956
203.825	-5076.70104
204.047	-1615.7292
204.269	-1384.23028
204.491	-1334.04588
204.713	-1523.89518
204.935	-1309.19952
205.156	-2723.50817
205.378	-2725.26281
205.6	-1610.09783
205.822	-1113.44237
206.044	1353.76841
206.266	-1314.97896
206.488	-870.57978
206.71	-1752.90062
206.932	-1760.83625
207.153	-1112.11729
207.375	-1322.66839
207.597	-1077.08015
207.819	-1096.7913
208.041	-1241.42961
208.262	-1744.94909
208.484	-892.51018
208.706	-2140.21254
208.927	-811.24582
209.149	-1247.50355
209.371	-1221.93901
209.593	-1741.52697
209.814	-626.5123
210.036	-938.87492
210.258	-685.76244
210.479	-1081.86948
210.701	-1672.7064
210.922	-1265.31966
211.144	-996.7578
211.366	-1095.06239
211.587	1487.13576
211.809	-1097.88345
212.03	-6462.95763
212.252	964.89632
212.473	-940.49744
212.695	-20597.1481
212.916	-3591.5975
213.138	-1372.38808
213.359	-967.49553
213.581	-1464.32135
213.802	-918.36637
214.024	-1377.37559
214.245	-11232.07113
214.466	-806.86294
214.688	-1483.15023
214.909	-1022.66319
215.131	-2876.85297
215.352	-3746.10143
215.573	-1095.24633
215.795	-1880.42409
216.016	-1538.39203
216.237	-3253.64704
216.459	-1397.36628
216.68	-1061.27581
216.901	-1525.87999
217.122	11254.07224
217.344	-965.67164
217.565	-1288.56453
217.786	-1309.63058
218.007	-942.28642
218.228	-1298.28848
218.45	-1102.70831
218.671	-1123.9012
218.892	-999.97816
219.113	-1678.27518
219.334	-96.28903
219.555	-1511.81743
219.776	-1577.21863
219.997	-1231.15142
220.219	17304.04674
220.44	-1179.45118
220.661	-3353.36765
220.882	-947.06522
221.103	1636.25155
221.324	-2781.36639
221.545	-1128.54372
221.766	-1302.63894
221.987	-1936.81635
222.208	-1987.11737
222.429	-766.9924
222.65	-674.99416
222.87	-1869.00588
223.091	-3583.92715
223.312	3263.66777
223.533	-1153.60655
223.754	-1555.34856
223.975	-2186.25234
224.196	8825.4792
224.417	-7831.4645
224.637	4027.69534
224.858	200.25286
225.079	-1896.68931
225.3	26077.53172
225.521	-1038.28259
225.741	-5254.91068
225.962	7458.83436
226.183	391.75755
226.404	-3641.16799
226.624	2611.84803
226.845	-83993.76798
227.066	-641383.82305
227.286	866.12279
227.507	306.29018
227.728	280.2069
227.948	680.16104
228.169	162.39519
228.389	179.90747
228.61	98.49995
228.831	129.7869
229.051	10.85068
229.272	70.3518
229.492	105.53694
229.713	30.10225
229.933	70.79376
230.154	62.58676
230.374	101.75251
230.595	74.0275
230.815	47.43073
231.036	75.49492
231.256	-10.33549
231.477	133.95329
231.697	74.29931
231.917	83.44186
232.138	118.82953
232.358	242.70388
232.579	194.72722
232.799	29.4116
233.019	192.57395
233.24	238.11606
233.46	80.50654
233.68	126.35925
233.901	84.25162
234.121	55.58419
234.341	20.20862
234.561	-4.8757
234.782	42.92538
235.002	135.60899
235.222	-0.49377
235.442	116.62863
235.662	59.73905
235.883	115.86984
236.103	97.77963
236.323	69.89514
236.543	53.65497
236.763	75.47994
236.983	78.08116
237.203	77.8008
237.423	114.65734
237.643	168.90748
237.864	151.13573
238.084	36.52468
238.304	46.11962
238.524	80.82225
238.744	78.21962
238.964	132.05969
239.184	112.98521
239.404	123.04643
239.624	63.78275
239.843	108.64528
240.063	67.26348
240.283	40.71063
240.503	47.25675
240.723	45.4434
240.943	28.26609
241.163	35.13047
241.383	24.88112
241.603	14.18923
241.822	15.22554
242.042	11.30117
242.262	14.32677
242.482	15.27069
242.702	17.21266
242.921	5.48662
243.141	11.20306
243.361	10.72671
243.581	15.05074
243.8	12.73429
244.02	8.40736
244.24	15.30136
244.459	14.39936
244.679	29.50768
244.899	18.08305
245.118	23.81078
245.338	21.38757
245.558	23.68246
245.777	13.30684
245.997	17.11421
246.216	17.62735
246.436	10.35607
246.655	7.48834
246.875	5.79095
247.094	10.22572
247.314	3.86831
247.533	6.32353
247.753	6.91551
247.972	5.41868
248.192	2.5776
248.411	3.43528
248.631	5.33028
248.85	7.15945
249.07	6.68419
249.289	10.03008
249.508	7.10235
249.728	11.89137
249.947	11.17754
250.166	14.55997
250.386	7.49704
250.605	11.16238
250.824	18.9229
251.044	12.812
251.263	39.39751
251.482	22.7466
251.701	19.17378
251.921	0.6736
252.14	6.92844
252.359	7.4243
252.578	16.26449
252.798	6.13009
253.017	14.19401
253.236	7.0819
253.455	9.07288
253.674	18.87513
253.893	8.65924
254.112	13.81246
254.331	19.14028
254.551	16.05714
254.77	7.6098
254.989	21.73245
255.208	16.90234
255.427	27.27058
255.646	22.08225
255.865	34.13858
256.084	15.15105
256.303	19.25493
256.522	23.09084
256.741	6.07493
256.96	6.55493
257.179	14.13635
257.397	17.48614
257.616	9.7685
257.835	10.70744
258.054	25.52186
258.273	17.9661
258.492	17.48769
258.711	11.62444
258.93	5.19543
259.148	8.04089
259.367	7.36421
259.586	9.12538
259.805	4.32636
260.023	7.92258
260.242	5.75077
260.461	4.39069
260.68	2.27776
260.898	6.56364
261.117	2.53905
261.336	1.69917
261.554	5.41804
261.773	5.60257
261.992	1.48429
262.21	5.02586
262.429	6.23348
262.648	10.9871
262.866	12.79908
263.085	9.63876
263.303	7.55211
263.522	14.37815
263.74	13.84955
263.959	23.8542
264.178	12.47969
264.396	10.33019
264.615	7.58492
264.833	17.52116
265.051	15.37532
265.27	17.62165
265.488	17.73298
265.707	10.51892
265.925	17.28078
266.144	8.4519
266.362	9.60308
266.58	10.20299
266.799	8.12168
267.017	9.59929
267.235	8.66399
267.454	5.75477
267.672	3.10281
267.89	6.95822
268.109	7.6657
268.327	7.50853
268.545	1.54331
268.763	6.86758
268.982	3.06697
269.2	7.79839
269.418	5.02176
269.636	3.82504
269.854	7.61286
270.073	5.55957
270.291	3.26372
270.509	3.06717
270.727	7.31777
270.945	11.76413
271.163	11.44059
271.381	2.96693
271.599	5.02568
271.817	8.28369
272.036	3.10877
272.254	5.73219
272.472	4.12269
272.69	4.08758
272.908	4.4016
273.126	6.67077
273.344	8.39251
273.562	3.20559
273.779	4.48394
273.997	6.98967
274.215	6.65418
274.433	4.76516
274.651	7.55732
274.869	7.17961
275.087	4.35348
275.305	6.81469
275.523	4.36374
275.74	5.09027
275.958	8.95007
276.176	12.99274
276.394	4.32081
276.612	5.34541
276.829	5.34734
277.047	4.6456
277.265	4.8544
277.483	5.93714
277.7	6.43976
277.918	5.52646
278.136	10.3489
278.353	4.87435
278.571	3.28849
278.789	8.15659
279.006	2.01655
279.224	4.91579
279.442	8.30928
279.659	5.99373
279.877	3.75995
280.094	8.76657
280.312	1.78606
280.529	5.97919
280.747	1.96318
280.964	4.85956
281.182	9.08249
281.399	5.23816
281.617	5.97993
281.834	4.28896
282.052	3.04101
282.269	5.41916
282.487	4.35357
282.704	3.89852
282.921	3.58099
283.139	5.34464
283.356	6.92698
283.574	6.48213
283.791	3.24193
284.008	8.49928
284.226	5.24944
284.443	5.55949
284.66	7.07161
284.877	6.30314
285.095	3.59921
285.312	2.89877
285.529	1.74513
285.746	1.53815
285.964	3.56306
286.181	2.24453
286.398	3.11652
286.615	4.61316
286.832	4.34778
287.05	1.15482
287.267	3.01746
287.484	3.13178
287.701	4.55405
287.918	4.1477
288.135	4.46345
288.352	1.93242
288.569	2.45678
288.786	4.18094
289.003	3.16411
289.22	5.13721
289.437	2.81708
289.654	4.88782
289.871	4.81226
290.088	4.70026
290.305	3.78752
290.522	3.2311
290.739	3.39136
290.956	5.06418
291.173	5.9213
291.39	5.55507
291.607	3.80445
291.824	3.15849
292.04	2.40853
292.257	4.90416
292.474	5.44554
292.691	3.59188
292.908	1.79392
293.125	2.8079
293.341	2.00544
293.558	7.88369
293.775	3.7375
293.992	4.06317
294.208	1.59446
294.425	2.48451
294.642	3.34439
294.858	5.05123
295.075	1.3825
295.292	3.48446
295.508	4.29685
295.725	5.84052
295.942	3.20469
296.158	2.48144
296.375	3.74407
296.591	3.0418
296.808	3.03221
297.024	3.52155
297.241	3.83915
297.458	4.10017
297.674	0.69355
297.891	3.29069
298.107	2.87096
298.323	2.12126
298.54	4.70369
298.756	2.73016
298.973	1.33621
299.189	5.03622
299.406	2.50605
299.622	5.16943
299.838	5.23575
300.055	4.5527
300.271	1.6207
300.487	2.31584
300.704	2.67516
300.92	1.74502
301.136	6.77193
301.353	5.30257
301.569	3.83778
301.785	4.04983
302.001	4.81053
302.218	4.33541
302.434	4.54599
302.65	1.92658
302.866	2.97074
303.083	7.06183
303.299	7.00498
303.515	4.01925
303.731	4.29873
303.947	1.96596
304.163	2.96907
304.379	3.99755
304.595	4.51752
304.812	3.02879
305.028	2.57885
305.244	3.42443
305.46	4.92908
305.676	4.63311
305.892	5.83412
306.108	4.79748
306.324	3.4301
306.54	6.55064
306.756	4.76516
306.972	4.57978
307.187	3.60458
307.403	6.1712
307.619	2.92918
307.835	5.69205
308.051	5.7682
308.267	2.47978
308.483	5.53959
308.699	4.69722
308.914	3.85286
309.13	4.09599
309.346	1.56992
309.562	2.45991
309.778	1.64033
309.993	4.70499
310.209	3.79986
310.425	2.09408
310.641	3.48825
310.856	2.39387
311.072	2.21403
311.288	3.66618
311.503	3.90983
311.719	1.49819
311.935	1.22294
312.15	4.38343
312.366	3.97738
312.581	4.49833
312.797	3.57542
313.013	4.81505
313.228	2.86146
313.444	3.71974
313.659	2.5733
313.875	4.43611
314.09	3.69431
314.306	6.06815
314.521	5.04131
314.737	4.88322
314.952	4.14284
315.168	4.11724
315.383	4.51499
315.599	3.61
315.814	3.59302
316.029	5.14192
316.245	2.52041
316.46	1.44087
316.675	5.86472
316.891	6.9927
317.106	8.30816
317.321	4.75856
317.537	4.80201
317.752	5.30523
317.967	5.27306
318.183	3.02365
318.398	3.61521
318.613	5.78963
318.828	6.09126
319.043	5.46264
319.259	3.70607
319.474	4.35855
319.689	5.8421
319.904	1.4857
320.119	5.5481
320.334	4.67649
320.549	3.72884
320.765	6.03409
320.98	4.65327
321.195	5.36195
321.41	4.19856
321.625	5.59457
321.84	6.76427
322.055	6.98482
322.27	3.1953
322.485	2.4901
322.7	4.69298
322.915	5.96123
323.13	2.94867
323.345	6.53925
323.56	5.40022
323.775	5.2342
323.989	5.08908
324.204	4.51995
324.419	5.57226
324.634	2.43736
324.849	4.0484
325.064	7.23427
325.279	5.5955
325.493	4.98697
325.708	5.61669
325.923	3.1788
326.138	3.40314
326.352	6.77858
326.567	5.43032
326.782	3.7986
326.997	3.32559
327.211	5.26273
327.426	4.77766
327.641	3.86106
327.855	1.94026
328.07	5.15581
328.285	7.07264
328.499	3.97893
328.714	4.80903
328.928	5.30401
329.143	4.46202
329.358	6.12151
329.572	5.87812
329.787	6.6199
330.001	8.6107
330.216	2.45181
330.43	7.18687
330.645	7.07249
330.859	5.75283
331.074	3.23265
331.288	4.65526
331.503	6.78697
331.717	2.75784
331.931	4.43631
332.146	4.95366
332.36	7.68786
332.575	5.24772
332.789	4.97645
333.003	4.45965
333.218	5.62401
333.432	3.63058
333.646	5.82748
333.86	6.96585
334.075	7.43082
334.289	3.91303
334.503	2.99743
334.717	5.60377
334.932	5.13134
335.146	6.02948
335.36	3.72467
335.574	5.33258
335.788	5.27358
336.003	6.1256
336.217	5.9959
336.431	5.30421
336.645	4.12063
336.859	3.06473
337.073	4.76443
337.287	5.06896
337.501	3.23688
337.715	5.45985
337.929	5.63181
338.143	3.22348
338.357	4.74507
338.571	3.74396
338.785	5.85983
338.999	4.0174
339.213	4.08687
339.427	2.99844
339.641	6.51302
339.855	3.94759
340.069	3.72751
340.283	6.19927
340.497	7.09594
340.711	5.50323
340.924	4.5955
341.138	3.41303
341.352	2.94747
341.566	4.91845
341.78	2.41213
341.993	3.96489
342.207	3.70782
342.421	5.23657
342.635	4.69333
342.848	3.96187
343.062	1.67152
343.276	3.97937
343.49	7.76321
343.703	3.91863
343.917	6.20415
344.131	6.21511
344.344	3.88957
344.558	4.1153
344.771	3.40918
344.985	6.43418
345.199	7.22902
345.412	4.91638
345.626	5.43359
345.839	2.51819
346.053	3.4709
346.266	3.53227
346.48	5.64563
346.693	5.36942
346.907	5.47568
347.12	3.55131
347.334	5.01349
347.547	5.4087
347.76	4.65222
347.974	6.52023
348.187	5.53293
348.401	4.61539
348.614	3.89494
348.827	4.54079
349.041	5.7015
349.254	2.59606
349.467	4.81179
349.681	3.63305
349.894	3.94875
350.107	6.6166
350.32	7.75158
350.534	3.09671
350.747	4.76405
350.96	3.93242
351.173	3.9838
351.386	4.38439
351.6	4.42979
351.813	4.33601
352.026	4.99569
352.239	3.35718
352.452	4.65902
352.665	6.60001
352.878	4.75842
353.092	8.04007
353.305	6.019
353.518	5.15536
353.731	3.99412
353.944	6.30366
354.157	4.46738
354.37	4.30061
354.583	3.53243
354.796	3.15879
355.009	6.68484
355.222	5.35461
355.435	5.12244
355.647	6.60053
355.86	3.95834
356.073	5.16323
356.286	4.40834
356.499	6.29358
356.712	6.13578
356.925	5.7146
357.138	6.43201
357.35	3.92937
357.563	4.63989
357.776	5.32617
357.989	5.09061
358.201	5.95152
358.414	5.67812
358.627	6.63922
358.84	4.98672
359.052	3.72927
359.265	3.94308
359.478	6.40664
359.69	2.04587
359.903	6.42187
360.116	6.50569
360.328	3.31697
360.541	6.27569
360.753	4.32143
360.966	4.8762
361.179	4.97531
361.391	4.74926
361.604	4.35478
361.816	4.81696
362.029	4.70379
362.241	4.30629
362.454	4.80678
362.666	4.36576
362.879	5.70081
363.091	4.9737
363.304	4.45009
363.516	4.97723
363.728	3.99334
363.941	5.76487
364.153	5.30644
364.366	2.76397
364.578	4.03488
364.79	5.90793
365.003	5.56781
365.215	4.76005
365.427	6.18492
365.639	6.85891
365.852	5.65366
366.064	7.55373
366.276	4.98388
366.488	5.94188
366.701	5.22545
366.913	5.08806
367.125	5.46606
367.337	4.76374
367.549	4.99753
367.762	5.46689
367.974	5.5859
368.186	5.25655
368.398	6.95876
368.61	6.34479
368.822	6.58519
369.034	5.5147
369.246	6.75348
369.458	8.83545
369.67	4.73213
369.882	8.18727
370.094	3.41097
370.306	7.6719
370.518	5.36795
370.73	5.46321
370.942	5.19142
371.154	5.80193
371.366	5.56313
371.578	6.81449
371.79	5.50742
372.002	7.43816
372.214	8.51152
372.425	6.1786
372.637	8.00886
372.849	6.60328
373.061	3.45859
373.273	6.86245
373.484	6.70052
373.696	7.22038
373.908	3.43872
374.12	7.51873
374.331	6.9346
374.543	5.26638
374.755	5.27849
374.967	6.6257
375.178	7.65255
375.39	6.11323
375.602	6.67233
375.813	4.71398
376.025	5.33984
376.236	6.50063
376.448	6.86167
376.66	6.48292
376.871	6.46917
377.083	7.62323
377.294	8.45886
377.506	6.22232
377.717	8.35377
377.929	7.09886
378.14	6.21362
378.352	7.53541
378.563	7.63904
378.775	8.41787
378.986	5.93497
379.197	7.0822
379.409	6.20519
379.62	7.86271
379.832	7.22238
380.043	6.82463
380.254	7.47564
380.466	5.53112
380.677	10.33896
380.888	9.47626
381.1	10.39414
381.311	9.87655
381.522	7.44636
381.733	10.72236
381.945	7.10253
382.156	7.15622
382.367	6.68489
382.578	10.74515
382.789	10.92721
383.001	6.69158
383.212	9.66215
383.423	9.65367
383.634	9.01625
383.845	8.61149
384.056	7.39534
384.267	7.76215
384.478	7.97113
384.69	6.52992
384.901	8.51425
385.112	8.26567
385.323	10.13217
385.534	8.30943
385.745	8.42302
385.956	8.47919
386.167	7.03674
386.378	8.76316
386.588	7.14763
386.799	7.20197
387.01	6.29816
387.221	9.27046
387.432	8.28851
387.643	10.41492
387.854	7.83125
388.065	7.86838
388.275	8.25199
388.486	7.64612
388.697	8.50627
388.908	7.97175
389.119	9.64129
389.329	10.25611
389.54	8.58927
389.751	8.94185
389.962	10.25324
390.172	8.77447
390.383	8.38407
390.594	8.04882
390.804	8.26727
391.015	8.38011
391.226	9.12369
391.436	9.64676
391.647	9.42388
391.858	9.83746
392.068	7.32345
392.279	7.87682
392.489	9.42862
392.7	10.19865
392.91	8.18843
393.121	8.22476
393.331	9.70283
393.542	10.63107
393.752	9.71825
393.963	9.69723
394.173	9.57672
394.384	10.22343
394.594	9.60704
394.804	8.03421
395.015	9.55418
395.225	10.3404
395.436	8.35456
395.646	9.90381
395.856	8.90432
396.067	7.95772
396.277	10.52633
396.487	10.06695
396.697	9.85205
396.908	10.52926
397.118	10.29781
397.328	9.8112
397.538	10.81463
397.749	9.03375
397.959	10.84072
398.169	10.35025
398.379	8.23548
398.589	10.53825
398.8	10.15461
399.01	10.35004
399.22	9.52577
399.43	12.33219
399.64	9.85921
399.85	10.47217
400.06	10.17676
400.27	9.34857
400.48	9.93982
400.69	11.41443
400.9	9.41126
401.11	8.88252
401.32	11.05927
401.53	9.46735
401.74	11.93064
401.95	10.91135
402.16	9.92459
402.37	11.08776
402.58	9.90086
402.79	11.11141
403	11.4967
403.209	9.81971
403.419	11.66471
403.629	9.92592
403.839	11.76327
404.049	11.65726
404.258	10.04794
404.468	9.87789
404.678	11.55569
404.888	11.85631
405.097	10.4703
405.307	10.69963
405.517	11.56084
405.727	11.25553
405.936	10.4255
406.146	11.08076
406.356	12.43604
406.565	10.69123
406.775	10.42511
406.984	10.45544
407.194	13.03163
407.404	10.91823
407.613	11.37525
407.823	11.66075
408.032	12.30745
408.242	12.169
408.451	10.50907
408.661	10.74515
408.87	13.11171
409.08	10.71315
409.289	11.69335
409.499	11.71006
409.708	11.47871
409.918	9.16226
410.127	11.58122
410.336	13.07957
410.546	12.19458
410.755	10.97599
410.964	10.92432
411.174	10.58855
411.383	12.1399
411.592	11.85011
411.802	10.41542
412.011	12.46914
412.22	11.40387
412.429	13.08944
412.639	12.93813
412.848	13.01757
413.057	13.2401
413.266	12.7235
413.475	11.703
413.685	12.41857
413.894	12.70128
414.103	12.93975
414.312	12.67641
414.521	11.68445
414.73	12.39822
414.939	13.96315
415.148	12.60236
415.357	12.40256
415.566	11.93597
415.776	11.92251
415.985	11.87414
416.194	13.08991
416.403	14.28825
416.611	11.16313
416.82	11.90966
417.029	12.68414
417.238	12.02429
417.447	11.92594
417.656	12.34141
417.865	12.20637
418.074	12.60165
418.283	12.6783
418.492	13.75335
418.7	13.50489
418.909	14.37849
419.118	13.06424
419.327	13.36251
419.536	13.06724
419.744	12.59702
419.953	13.92257
420.162	13.90709
420.371	12.5985
420.579	12.42615
420.788	13.6375
420.997	13.61959
421.205	13.51722
421.414	13.22479
421.623	13.26581
421.831	12.82928
422.04	13.54035
422.249	12.73071
422.457	13.44492
422.666	12.91232
422.874	13.95479
423.083	14.19913
423.291	13.90082
423.5	13.69674
423.708	13.61915
423.917	14.27645
