Data from WindowProjectSample3_Transmission__26__00026.txt Node

Date: Sun May 04 10:25:55 EDT 2025
User: jessi
Spectrometer: SR400872
Trigger mode: 0
Integration Time (sec): 5.000050E-1
Scans to average: 20
Electric dark correction enabled: true
Nonlinearity correction enabled: true
Boxcar width: 0
XAxis mode: Wavelengths
Number of Pixels in Spectrum: 3648
>>>>>Begin Spectral Data<<<<<
184.909	-1619.2326
185.132	-1264.10751
185.355	-1293.79945
185.578	-1075.58751
185.801	-2979.29613
186.024	-1057.84296
186.247	-1542.41726
186.47	-2875.91878
186.693	-200.70688
186.916	-189.6112
187.139	-986.4533
187.362	-1660.72031
187.585	-980.56636
187.808	-820.72531
188.031	-242610.15375
188.254	-1318.15015
188.476	-1147.0017
188.699	-1082.12376
188.922	569.16257
189.145	-1276.76604
189.368	-1001.69852
189.591	-3348.09523
189.813	-744.04467
190.036	-1337.26876
190.259	-3198.03401
190.482	-1565.35824
190.705	-1727.15753
190.927	-964.82609
191.15	-1694.12906
191.373	-2241.88516
191.595	-2553.57054
191.818	-1223.96913
192.041	-13204.58878
192.263	-1529.90316
192.486	-444.99705
192.709	-1636.17887
192.931	-4266.18018
193.154	-1204.78431
193.377	-1173.33447
193.599	12260.28024
193.822	-820.60474
194.044	-3885.71989
194.267	-5055.61104
194.489	-1099.98429
194.712	-1743.30531
194.934	-1622.73518
195.157	-1046.26515
195.379	-806.42665
195.602	-850.08198
195.824	-1035.25207
196.047	-940.58692
196.269	-1040.06999
196.492	-1076.0589
196.714	-1069.26888
196.936	-1616.0791
197.159	-920.77865
197.381	-926.16134
197.604	-1196.97528
197.826	-1924.91892
198.048	-1522.89387
198.271	-1240.62176
198.493	-1068.18545
198.715	-886.87275
198.938	-5858.0958
199.16	-1178.65864
199.382	-916.14776
199.604	-9262.66569
199.827	-1713.40535
200.049	-1000.9665
200.271	-872.02963
200.493	-2262.11501
200.715	-954.66445
200.938	-783.81933
201.16	-1283.50617
201.382	-2671.21281
201.604	-1286.57242
201.826	-1247.22774
202.048	-551.55872
202.27	-884.61486
202.492	-1976.36367
202.715	-2003.35225
202.937	-2266.17883
203.159	-1190.20371
203.381	-1693.76347
203.603	-1286.21279
203.825	4247.89683
204.047	-1174.72668
204.269	-3087.46741
204.491	-1604.39795
204.713	-778.44165
204.935	-1248.56681
205.156	-1349.84029
205.378	-3707.02654
205.6	-978.29496
205.822	-1082.82976
206.044	2487.82473
206.266	-1290.95654
206.488	-753.54104
206.71	-1843.77269
206.932	-2422.147
207.153	-1130.70327
207.375	-956.53048
207.597	-1081.18665
207.819	-882.05783
208.041	-1293.43046
208.262	-1103.53586
208.484	-1909.84034
208.706	-880.33741
208.927	-840.01022
209.149	-2249.86327
209.371	-811.68171
209.593	-676.27216
209.814	-588.49133
210.036	-802.01116
210.258	-552.15694
210.479	-1399.95801
210.701	10846.65738
210.922	-859.73641
211.144	-910.79818
211.366	-1904.64978
211.587	10728.65403
211.809	-1025.74025
212.03	-3207.46908
212.252	1669.1431
212.473	-1104.59237
212.695	-4098.48362
212.916	-3070.15543
213.138	-5609.68382
213.359	-944.62893
213.581	-1616.69421
213.802	-1039.05362
214.024	-1294.87784
214.245	-10672.38171
214.466	-903.64796
214.688	-1224.12139
214.909	-1528.08694
215.131	-2110.87164
215.352	-1003.0636
215.573	-1257.53315
215.795	-3119.87367
216.016	-1135.60081
216.237	-4538.28166
216.459	-13843.09933
216.68	-1599.44188
216.901	-1446.32801
217.122	-3572.52429
217.344	-1200.37515
217.565	-1606.20185
217.786	-1450.57391
218.007	-1219.92044
218.228	-5237.63647
218.45	-1165.07876
218.671	-1488.81763
218.892	-1736.27723
219.113	-2489.1314
219.334	-61.65398
219.555	-1250.3552
219.776	-851.78596
219.997	-1369.22668
220.219	-2940.36671
220.44	-1019.22738
220.661	-841.53474
220.882	-981.232
221.103	-3037.69761
221.324	5903.47727
221.545	-1928.17848
221.766	-1351.50958
221.987	-2427.00491
222.208	-2936.15733
222.429	-940.23944
222.65	-2022.19045
222.87	5285.07203
223.091	-8566.61151
223.312	4303.92984
223.533	-1684.51077
223.754	-1621.30346
223.975	-2486.95739
224.196	158989.69646
224.417	-9898.3458
224.637	2246.15656
224.858	201.84715
225.079	-7073.33271
225.3	2465.91625
225.521	-874.22163
225.741	8471.85205
225.962	6778.72818
226.183	302.11769
226.404	9140.54647
226.624	1714.16391
226.845	7921.42746
227.066	1752.89242
227.286	732.86455
227.507	253.62328
227.728	262.62741
227.948	496.8318
228.169	147.77551
228.389	151.0365
228.61	85.46536
228.831	117.99616
229.051	9.87168
229.272	70.02314
229.492	106.64998
229.713	29.69283
229.933	73.40822
230.154	63.09312
230.374	107.17105
230.595	75.13296
230.815	46.83294
231.036	82.19785
231.256	-6.98451
231.477	144.47873
231.697	79.81295
231.917	85.66338
232.138	122.46616
232.358	237.9401
232.579	202.0814
232.799	34.99335
233.019	206.3166
233.24	242.17247
233.46	77.88843
233.68	126.20619
233.901	82.25486
234.121	52.12323
234.341	21.28652
234.561	-8.97393
234.782	41.28207
235.002	140.53297
235.222	1.57667
235.442	122.26548
235.662	58.97696
235.883	117.26174
236.103	95.19653
236.323	71.11016
236.543	54.5252
236.763	75.92068
236.983	79.71078
237.203	78.73041
237.423	121.51205
237.643	184.37094
237.864	147.54183
238.084	34.31849
238.304	47.35388
238.524	90.34429
238.744	76.07892
238.964	137.66823
239.184	119.80373
239.404	127.0924
239.624	60.50832
239.843	107.34929
240.063	61.3855
240.283	39.8779
240.503	45.22669
240.723	44.86888
240.943	28.41951
241.163	34.37494
241.383	11.4526
241.603	14.33204
241.822	15.10153
242.042	10.77209
242.262	14.26657
242.482	15.22549
242.702	16.9797
242.921	5.87952
243.141	11.80124
243.361	11.38952
243.581	16.33403
243.8	14.14503
244.02	9.10038
244.24	17.45028
244.459	15.86702
244.679	31.80377
244.899	20.71772
245.118	22.87524
245.338	21.96217
245.558	23.30215
245.777	13.51191
245.997	16.05695
246.216	16.24125
246.436	9.65878
246.655	7.0203
246.875	5.52778
247.094	9.90211
247.314	3.96959
247.533	6.27803
247.753	6.96776
247.972	5.54146
248.192	2.08009
248.411	3.50795
248.631	5.93105
248.85	7.40606
249.07	7.4201
249.289	10.9644
249.508	7.7157
249.728	12.58302
249.947	12.52422
250.166	15.7127
250.386	8.35714
250.605	12.69164
250.824	20.79206
251.044	12.55662
251.263	39.06857
251.482	22.38648
251.701	19.17888
251.921	0.55447
252.14	6.27899
252.359	7.56892
252.578	16.38891
252.798	6.21972
253.017	14.39746
253.236	7.37529
253.455	10.36495
253.674	19.53615
253.893	9.25084
254.112	15.14782
254.331	20.35156
254.551	15.6353
254.77	7.70934
254.989	23.05137
255.208	18.01213
255.427	27.32449
255.646	22.75008
255.865	34.07583
256.084	15.84281
256.303	18.91112
256.522	21.96998
256.741	6.0843
256.96	5.98722
257.179	13.73769
257.397	17.80616
257.616	10.41357
257.835	10.48728
258.054	24.70973
258.273	16.40323
258.492	16.79286
258.711	10.64905
258.93	5.11867
259.148	7.04008
259.367	6.53982
259.586	8.37979
259.805	4.07899
260.023	7.55387
260.242	5.67904
260.461	4.34146
260.68	2.22985
260.898	6.65432
261.117	2.53452
261.336	1.60737
261.554	5.76388
261.773	5.86515
261.992	1.76575
262.21	5.9405
262.429	6.75779
262.648	11.42758
262.866	13.05317
263.085	9.63852
263.303	8.12738
263.522	14.31935
263.74	13.86216
263.959	23.88214
264.178	12.36461
264.396	10.42522
264.615	7.83703
264.833	17.71923
265.051	15.19876
265.27	17.27228
265.488	17.1437
265.707	10.27571
265.925	16.03587
266.144	8.08988
266.362	9.00179
266.58	8.79042
266.799	7.65519
267.017	9.50219
267.235	8.19599
267.454	5.96086
267.672	2.87225
267.89	7.14762
268.109	7.36662
268.327	7.63423
268.545	1.65275
268.763	6.89333
268.982	3.07379
269.2	7.58229
269.418	5.43282
269.636	4.12233
269.854	7.29327
270.073	5.45636
270.291	3.4085
270.509	3.03427
270.727	6.90686
270.945	11.1897
271.163	10.76477
271.381	2.8488
271.599	4.73795
271.817	7.75
272.036	2.91019
272.254	5.50467
272.472	3.57779
272.69	3.96641
272.908	4.11287
273.126	6.26028
273.344	8.1097
273.562	2.90933
273.779	4.31182
273.997	6.71702
274.215	6.47434
274.433	4.7519
274.651	7.16195
274.869	7.05658
275.087	4.42966
275.305	6.39661
275.523	4.17428
275.74	4.66671
275.958	8.45322
276.176	12.40704
276.394	3.90602
276.612	5.46954
276.829	5.05311
277.047	4.61215
277.265	4.99696
277.483	5.8393
277.7	6.31684
277.918	5.22827
278.136	9.71687
278.353	4.77503
278.571	2.72573
278.789	7.55907
279.006	1.7747
279.224	4.6365
279.442	7.55545
279.659	5.75872
279.877	3.43555
280.094	8.14153
280.312	1.74207
280.529	5.18192
280.747	1.98746
280.964	4.50286
281.182	8.67967
281.399	4.50749
281.617	5.62585
281.834	3.91406
282.052	2.83044
282.269	5.16869
282.487	4.05742
282.704	3.78747
282.921	3.3605
283.139	5.07491
283.356	6.46857
283.574	6.1239
283.791	3.03966
284.008	7.91256
284.226	4.8306
284.443	5.12118
284.66	6.3214
284.877	5.72233
285.095	3.50131
285.312	2.65682
285.529	1.77526
285.746	1.41862
285.964	3.18339
286.181	2.25379
286.398	3.06525
286.615	4.3893
286.832	4.08455
287.05	1.08417
287.267	2.88025
287.484	3.01893
287.701	4.18852
287.918	4.12528
288.135	4.02276
288.352	1.92529
288.569	2.3621
288.786	3.81925
289.003	2.85117
289.22	4.83468
289.437	2.59317
289.654	4.47404
289.871	4.4623
290.088	4.46435
290.305	3.49966
290.522	3.03337
290.739	3.26149
290.956	4.63189
291.173	5.50314
291.39	5.23082
291.607	3.63931
291.824	2.81522
292.04	2.25717
292.257	4.66222
292.474	5.04663
292.691	3.31842
292.908	1.69576
293.125	2.71993
293.341	1.74838
293.558	7.49416
293.775	3.36823
293.992	3.35397
294.208	1.44447
294.425	2.20775
294.642	3.04492
294.858	4.99796
295.075	1.33781
295.292	3.12908
295.508	3.85876
295.725	5.38187
295.942	3.1042
296.158	2.51866
296.375	3.72726
296.591	3.0192
296.808	3.20613
297.024	3.80016
297.241	4.13905
297.458	4.37029
297.674	1.57592
297.891	3.82775
298.107	3.69755
298.323	2.90567
298.54	5.62539
298.756	3.66404
298.973	2.68221
299.189	6.21288
299.406	4.02551
299.622	6.24598
299.838	6.6095
300.055	5.99038
300.271	3.57609
300.487	3.98924
300.704	4.57646
300.92	3.90698
301.136	8.52764
301.353	7.10782
301.569	5.85101
301.785	6.31266
302.001	6.75602
302.218	6.64932
302.434	7.11767
302.65	4.56519
302.866	5.54624
303.083	9.54757
303.299	9.65639
303.515	6.78087
303.731	7.12284
303.947	5.17016
304.163	6.16691
304.379	6.9697
304.595	7.33047
304.812	5.97027
305.028	5.94053
305.244	6.38597
305.46	7.85772
305.676	8.22199
305.892	9.06537
306.108	8.13209
306.324	6.79316
306.54	9.76067
306.756	7.9486
306.972	7.71632
307.187	7.36553
307.403	9.1687
307.619	6.43434
307.835	8.91932
308.051	8.89766
308.267	6.27899
308.483	9.26647
308.699	8.28071
308.914	7.68734
309.13	7.80829
309.346	6.17465
309.562	6.69051
309.778	6.15594
309.993	8.54442
310.209	8.39775
310.425	6.52898
310.641	8.02669
310.856	7.12796
311.072	7.03004
311.288	8.07038
311.503	8.85523
311.719	6.31931
311.935	6.5203
312.15	8.99636
312.366	9.0739
312.581	9.08211
312.797	8.52213
313.013	9.6759
313.228	7.78288
313.444	8.26158
313.659	7.31102
313.875	8.98066
314.09	8.31154
314.306	10.21612
314.521	9.4368
314.737	9.56831
314.952	8.79008
315.168	8.98354
315.383	9.16989
315.599	8.12933
315.814	8.44962
316.029	9.86143
316.245	7.45607
316.46	6.35292
316.675	10.1345
316.891	11.39444
317.106	12.69323
317.321	9.31111
317.537	9.61522
317.752	9.94317
317.967	10.16776
318.183	8.0481
318.398	8.67708
318.613	10.17387
318.828	10.71556
319.043	9.90879
319.259	8.82357
319.474	9.33215
319.689	10.44876
319.904	7.08325
320.119	10.63617
320.334	9.42698
320.549	8.97149
320.765	10.91406
320.98	10.06513
321.195	10.19926
321.41	9.54579
321.625	10.50156
321.84	11.47694
322.055	11.5453
322.27	8.53299
322.485	8.00341
322.7	10.24388
322.915	10.84972
323.13	9.18422
323.345	12.06397
323.56	10.6972
323.775	11.1456
323.989	10.87641
324.204	10.36716
324.419	11.48197
324.634	8.85712
324.849	10.49244
325.064	13.18863
325.279	11.89874
325.493	11.1468
325.708	11.86348
325.923	9.65088
326.138	10.48973
326.352	12.6165
326.567	11.62205
326.782	10.25722
326.997	10.44398
327.211	11.70433
327.426	11.27324
327.641	10.72343
327.855	9.09383
328.07	11.94439
328.285	13.64663
328.499	10.47823
328.714	11.19144
328.928	11.70232
329.143	11.28333
329.358	12.84304
329.572	12.26672
329.787	13.04932
330.001	14.76527
330.216	9.5277
330.43	14.03209
330.645	13.03733
330.859	12.60582
331.074	10.09426
331.288	11.49201
331.503	14.25812
331.717	10.21556
331.931	11.69566
332.146	12.45461
332.36	14.48949
332.575	12.35182
332.789	12.00392
333.003	12.1538
333.218	12.90292
333.432	11.50851
333.646	13.19035
333.86	14.48713
334.075	14.37622
334.289	11.66235
334.503	10.45834
334.717	13.07569
334.932	12.58724
335.146	13.2359
335.36	11.29492
335.574	13.63081
335.788	13.04419
336.003	13.88519
336.217	14.38748
336.431	13.5658
336.645	12.65964
336.859	11.96782
337.073	13.41312
337.287	13.52391
337.501	11.69074
337.715	13.79436
337.929	13.57425
338.143	11.90779
338.357	12.93092
338.571	12.78396
338.785	14.56811
338.999	12.74357
339.213	12.62058
339.427	12.25699
339.641	15.15587
339.855	13.08455
340.069	12.46257
340.283	14.78388
340.497	15.47593
340.711	14.73415
340.924	14.02731
341.138	12.90019
341.352	12.44326
341.566	13.97267
341.78	12.32718
341.993	13.46878
342.207	13.33387
342.421	14.65594
342.635	13.96821
342.848	13.80549
343.062	11.38116
343.276	13.74775
343.49	16.75026
343.703	13.73872
343.917	15.77703
344.131	16.10876
344.344	13.79655
344.558	14.27964
344.771	13.40483
344.985	16.1887
345.199	17.16145
345.412	15.54756
345.626	15.59771
345.839	13.25077
346.053	13.80364
346.266	14.19621
346.48	15.91878
346.693	15.50435
346.907	15.42709
347.12	14.0008
347.334	14.9553
347.547	15.71887
347.76	14.92252
347.974	16.53407
348.187	15.28383
348.401	15.0121
348.614	14.08061
348.827	15.05134
349.041	15.56951
349.254	13.39185
349.467	14.90472
349.681	14.60769
349.894	14.45892
350.107	16.99356
350.32	18.11851
350.534	13.9929
350.747	15.50114
350.96	14.63275
351.173	14.82809
351.386	15.29279
351.6	15.18148
351.813	15.41712
352.026	15.48409
352.239	14.68402
352.452	15.30582
352.665	17.53523
352.878	15.65273
353.092	18.45516
353.305	16.86606
353.518	16.16995
353.731	15.04644
353.944	17.0423
354.157	16.03365
354.37	15.76722
354.583	14.85123
354.796	15.07435
355.009	17.79618
355.222	16.82355
355.435	16.54738
355.647	17.96166
355.86	15.92129
356.073	17.04107
356.286	16.29384
356.499	18.02755
356.712	17.92685
356.925	17.47207
357.138	18.12714
357.35	16.28752
357.563	16.81584
357.776	17.66721
357.989	17.52764
358.201	18.2185
358.414	18.10072
358.627	18.88082
358.84	17.31422
359.052	16.35469
359.265	16.58735
359.478	18.3999
359.69	14.95689
359.903	18.59104
360.116	18.67599
360.328	16.16097
360.541	18.64771
360.753	17.28664
360.966	17.58017
361.179	17.76699
361.391	17.69412
361.604	17.47361
361.816	17.9493
362.029	17.99809
362.241	17.58648
362.454	18.30978
362.666	17.54035
362.879	18.92524
363.091	17.91278
363.304	17.80906
363.516	17.94997
363.728	16.97752
363.941	18.60128
364.153	18.23685
364.366	15.89631
364.578	16.81578
364.79	18.4054
365.003	18.21985
365.215	17.48915
365.427	18.60093
365.639	19.03942
365.852	18.16898
366.064	19.50458
366.276	17.84123
366.488	18.32766
366.701	17.76502
366.913	17.54581
367.125	18.09786
367.337	17.15905
367.549	17.60987
367.762	17.83607
367.974	17.82003
368.186	17.88574
368.398	19.10946
368.61	18.40749
368.822	18.76577
369.034	17.70752
369.246	18.98565
369.458	20.76592
369.67	17.19166
369.882	19.82186
370.094	16.27412
370.306	19.48521
370.518	17.63236
370.73	17.80887
370.942	17.61551
371.154	18.42317
371.366	18.23674
371.578	18.95024
371.79	18.38141
372.002	19.51143
372.214	20.85515
372.425	18.46635
372.637	20.20435
372.849	18.95764
373.061	16.4768
373.273	19.12043
373.484	18.99836
373.696	19.45722
373.908	16.31615
374.12	19.44273
374.331	19.23582
374.543	17.57525
374.755	17.61344
374.967	18.63173
375.178	19.79226
375.39	18.25898
375.602	18.76655
375.813	17.16202
376.025	18.01332
376.236	18.93128
376.448	19.30715
376.66	19.12381
376.871	18.97653
377.083	19.72684
377.294	20.93241
377.506	18.86829
377.717	20.74961
377.929	19.56049
378.14	18.87765
378.352	19.85073
378.563	19.96849
378.775	20.73792
378.986	18.43504
379.197	19.74505
379.409	18.41072
379.62	19.73361
379.832	19.26477
380.043	19.04193
380.254	19.6454
380.466	17.99289
380.677	21.90006
380.888	21.53828
381.1	22.05668
381.311	21.97854
381.522	19.50357
381.733	22.02903
381.945	19.1077
382.156	19.02087
382.367	19.02509
382.578	22.12903
382.789	22.30597
383.001	18.72359
383.212	21.27769
383.423	21.32642
383.634	20.66967
383.845	20.38962
384.056	19.42758
384.267	19.78707
384.478	19.86185
384.69	18.82124
384.901	20.40617
385.112	20.11575
385.323	21.66304
385.534	20.18365
385.745	20.37443
385.956	20.32791
386.167	19.14397
386.378	20.5569
386.588	19.2765
386.799	19.15204
387.01	18.70423
387.221	21.0169
387.432	20.13926
387.643	21.79029
387.854	19.80301
388.065	19.72366
388.275	20.04271
388.486	19.57369
388.697	20.14843
388.908	19.68603
389.119	21.09449
389.329	21.49639
389.54	20.1671
389.751	20.16414
389.962	21.56477
390.172	20.14626
390.383	20.0586
390.594	19.37444
390.804	19.58021
391.015	19.81621
391.226	20.3688
391.436	21.01906
391.647	20.75881
391.858	21.07701
392.068	19.07831
392.279	19.6738
392.489	20.91754
392.7	21.49574
392.91	19.90434
393.121	19.7129
393.331	20.92059
393.542	21.63534
393.752	21.52143
393.963	20.99972
394.173	20.92061
394.384	21.30517
394.594	20.6273
394.804	19.70033
395.015	20.67124
395.225	21.44794
395.436	19.84099
395.646	21.1325
395.856	20.37007
396.067	19.51302
396.277	21.43082
396.487	21.01669
396.697	21.01143
396.908	21.34176
397.118	21.39448
397.328	20.71282
397.538	21.62405
397.749	20.17465
397.959	21.55407
398.169	21.07722
398.379	19.36425
398.589	21.16333
398.8	21.0883
399.01	21.10069
399.22	20.42005
399.43	22.81647
399.64	20.77768
399.85	21.19467
400.06	21.1429
400.27	20.23901
400.48	20.70613
400.69	21.69578
400.9	20.42088
401.11	19.98676
401.32	21.50169
401.53	20.12922
401.74	22.16267
401.95	21.2783
402.16	20.48145
402.37	21.35558
402.58	20.27365
402.79	21.44209
403	21.5815
403.209	20.09599
403.419	21.84373
403.629	20.46667
403.839	21.8318
404.049	21.92099
404.258	20.75204
404.468	20.43945
404.678	21.8744
404.888	22.27808
405.097	20.87888
405.307	21.04224
405.517	21.93368
405.727	21.66321
405.936	20.86543
406.146	21.50785
406.356	22.27989
406.565	21.2131
406.775	20.90144
406.984	20.94393
407.194	22.87822
407.404	21.17907
407.613	21.55295
407.823	21.78701
408.032	22.61039
408.242	22.04012
408.451	20.75613
408.661	21.15966
408.87	22.88546
409.08	20.89162
409.289	21.58505
409.499	21.33985
409.708	21.31513
409.918	19.51413
410.127	21.48503
410.336	22.72545
410.546	21.97993
410.755	20.97194
410.964	21.21746
411.174	20.8581
411.383	21.91719
411.592	21.89647
411.802	20.74113
412.011	22.13774
412.22	21.4092
412.429	22.99004
412.639	22.67883
412.848	22.33283
413.057	22.94538
413.266	22.28084
413.475	21.47609
413.685	22.35938
413.894	22.49352
414.103	22.39702
414.312	22.20559
414.521	21.32371
414.73	21.83831
414.939	23.29355
415.148	22.12603
415.357	22.00775
415.566	21.76377
415.776	21.5397
415.985	21.56472
416.194	22.69001
416.403	23.56773
416.611	20.9643
416.82	21.52783
417.029	22.16097
417.238	21.57808
417.447	21.54064
417.656	21.84696
417.865	21.73737
418.074	21.97839
418.283	22.16021
418.492	22.81044
418.7	22.81716
418.909	23.56239
419.118	22.30419
419.327	22.73995
419.536	22.54302
419.744	22.07966
