Data from WindowProjectSample_Transmission__3__00003.txt Node

Date: Sat May 03 14:54:01 EDT 2025
User: jessi
Spectrometer: SR400872
Trigger mode: 0
Integration Time (sec): 5.000010E-1
Scans to average: 6
Electric dark correction enabled: true
Nonlinearity correction enabled: true
Boxcar width: 0
XAxis mode: Wavelengths
Number of Pixels in Spectrum: 3648
>>>>>Begin Spectral Data<<<<<
184.909	18708.33519
185.132	2615.91082
185.355	23540.03554
185.578	-7813.32629
185.801	399.06581
186.024	-1452.69565
186.247	713.56363
186.47	1925.42921
186.693	-190.031
186.916	-3306.123
187.139	-2665.0675
187.362	1615.5155
187.585	2773.47258
187.808	-3958.56743
188.031	498.21952
188.254	-1195.19846
188.476	-662.59255
188.699	2453.33841
188.922	-809.47111
189.145	-9589.61118
189.368	-315.12874
189.591	-1383.01438
189.813	-1749.06347
190.036	1185.5546
190.259	1637.16279
190.482	542.66479
190.705	10376.88627
190.927	-1023.39798
191.15	3405.32449
191.373	2251.50739
191.595	-2232.06584
191.818	2447.96224
192.041	-265.60964
192.263	2624.60291
192.486	1671.31056
192.709	-5280.2779
192.931	2691.99922
193.154	-5923.45588
193.377	176871.29891
193.599	1433.46793
193.822	1457.78499
194.044	-1921.71484
194.267	393.79086
194.489	-525.42982
194.712	1364.95519
194.934	3257.62732
195.157	-16002.311
195.379	649.62098
195.602	2176.20782
195.824	1756.30817
196.047	2443.97579
196.269	2779.56351
196.492	3290.07634
196.714	2552.66906
196.936	1176.396
197.159	1301.06373
197.381	-2124.86325
197.604	-1135.67152
197.826	6240.25494
198.048	2920.08355
198.271	3834.57738
198.493	2228.29068
198.715	-5938.92162
198.938	-467.13947
199.16	1876.55734
199.382	1432.03976
199.604	-496.39412
199.827	8967.19481
200.049	867.70127
200.271	-2800.20834
200.493	-50346.65218
200.715	2129.26441
200.938	6831.58589
201.16	-6962.53869
201.382	-2850.62391
201.604	-1832.24495
201.826	6822.12605
202.048	854.22561
202.27	-16157.35072
202.492	4592.44776
202.715	-1023.0001
202.937	4499.59477
203.159	-2190.22479
203.381	857.08434
203.603	-3702.58131
203.825	-2527.52584
204.047	3208.22883
204.269	-2034.15911
204.491	2104.98788
204.713	1836.01648
204.935	14449.92051
205.156	1667.28929
205.378	-7325.23852
205.6	-4203.33214
205.822	9178.44419
206.044	-772.42564
206.266	3773.65854
206.488	973.55661
206.71	28578.92712
206.932	2256.13085
207.153	-4845.84335
207.375	-1692.77692
207.597	8150.26226
207.819	4365.26784
208.041	2151.18862
208.262	-3123.68402
208.484	-1178.19302
208.706	-2329.11709
208.927	25835.42561
209.149	891.52928
209.371	-6123.84665
209.593	1289.44358
209.814	5706.54739
210.036	-2107.29354
210.258	-5181.08828
210.479	-1285.94238
210.701	939.74903
210.922	7026.9161
211.144	-1132.4221
211.366	-5723.27848
211.587	-583.5436
211.809	9555.13828
212.03	-1149.10562
212.252	-1975.99118
212.473	756.9119
212.695	-2081.94573
212.916	2666.58867
213.138	2774.10279
213.359	-1849.17039
213.581	5806.70606
213.802	-1606.92978
214.024	18116.44115
214.245	-3091.42449
214.466	-611.69545
214.688	1585.47548
214.909	901.79894
215.131	-83831.89829
215.352	1599.35095
215.573	2477.44684
215.795	2832.97408
216.016	3744.52347
216.237	-541.20823
216.459	6127.0655
216.68	101448.16146
216.901	-78676.76309
217.122	1854.16906
217.344	5909.56147
217.565	-55774.94538
217.786	1449.44913
218.007	1651.20692
218.228	-967.53653
218.45	-1150.23228
218.671	-965.41995
218.892	1104.00901
219.113	-17092.90252
219.334	-383.65404
219.555	-5472.62538
219.776	1478.0208
219.997	3284.36268
220.219	1161.78425
220.44	2092.30397
220.661	-2537.62596
220.882	3498.1555
221.103	-1191.86039
221.324	977.86765
221.545	2143.38066
221.766	-5880.9405
221.987	3184.46765
222.208	-1848.37786
222.429	3566.80886
222.65	-114.1125
222.87	-533.20919
223.091	8127.60752
223.312	2362.39541
223.533	5973.09088
223.754	1800.69645
223.975	1395.58016
224.196	-9808.95211
224.417	991.65546
224.637	804.37403
224.858	-771.07527
225.079	6233.97171
225.3	518.65707
225.521	2058.29903
225.741	1264.56699
225.962	726.13997
226.183	237.05037
226.404	616.68623
226.624	573.56193
226.845	358.13678
227.066	370.27958
227.286	181.08041
227.507	92.98842
227.728	77.00575
227.948	124.62939
228.169	37.64921
228.389	44.72732
228.61	23.65032
228.831	33.39447
229.051	3.71838
229.272	20.64195
229.492	29.37925
229.713	8.17978
229.933	22.28375
230.154	17.50968
230.374	30.92433
230.595	24.27961
230.815	14.09735
231.036	22.32765
231.256	-5.96857
231.477	41.05646
231.697	26.15083
231.917	23.97979
232.138	32.12431
232.358	79.7536
232.579	61.01166
232.799	8.20272
233.019	65.52338
233.24	77.84825
233.46	23.33201
233.68	42.70026
233.901	27.64654
234.121	17.91153
234.341	5.68908
234.561	-3.10791
234.782	14.51272
235.002	42.05584
235.222	-1.09155
235.442	40.56244
235.662	18.2135
235.883	41.98236
236.103	36.3065
236.323	27.23383
236.543	16.59056
236.763	28.90662
236.983	26.58541
237.203	29.90393
237.423	40.89002
237.643	60.72299
237.864	52.98328
238.084	10.04712
238.304	20.1307
238.524	32.35453
238.744	30.25461
238.964	45.15588
239.184	40.39998
239.404	41.99673
239.624	22.63959
239.843	39.84149
240.063	21.88282
240.283	17.01947
240.503	16.48096
240.723	16.33025
240.943	8.57503
241.163	12.92922
241.383	10.2492
241.603	4.68939
241.822	5.49447
242.042	4.55438
242.262	5.22676
242.482	6.4512
242.702	8.16007
242.921	2.57875
243.141	5.52955
243.361	4.60544
243.581	7.27436
243.8	5.80628
244.02	3.49875
244.24	7.98927
244.459	7.4176
244.679	13.29888
244.899	8.74007
245.118	10.65067
245.338	8.45617
245.558	9.96837
245.777	5.61162
245.997	7.20092
246.216	7.34725
246.436	4.05931
246.655	2.98759
246.875	2.38745
247.094	4.7969
247.314	1.45135
247.533	2.57021
247.753	3.44581
247.972	2.78575
248.192	0.82852
248.411	1.57082
248.631	2.96727
248.85	3.88741
249.07	2.75575
249.289	5.17022
249.508	3.8853
249.728	6.32061
249.947	5.8419
250.166	6.75294
250.386	3.63791
250.605	4.64993
250.824	7.75478
251.044	5.73386
251.263	20.50205
251.482	10.10886
251.701	9.84919
251.921	-0.05707
252.14	3.17919
252.359	3.51441
252.578	8.17571
252.798	2.89216
253.017	6.82253
253.236	3.6854
253.455	4.4991
253.674	9.09047
253.893	4.10427
254.112	5.87559
254.331	8.44596
254.551	7.02883
254.77	2.50887
254.989	11.58369
255.208	9.08052
255.427	12.6828
255.646	9.95726
255.865	17.45568
256.084	6.33485
256.303	7.19274
256.522	11.46402
256.741	2.47928
256.96	2.58355
257.179	7.13146
257.397	8.17825
257.616	3.85495
257.835	4.74188
258.054	11.80848
258.273	7.81343
258.492	8.52026
258.711	4.97362
258.93	2.18248
259.148	3.20613
259.367	3.50941
259.586	4.49798
259.805	2.00779
260.023	4.09381
260.242	3.25542
260.461	2.15553
260.68	1.12553
260.898	3.86271
261.117	1.27722
261.336	0.71391
261.554	2.93775
261.773	2.99228
261.992	0.73284
262.21	2.70124
262.429	3.33784
262.648	6.25663
262.866	6.88582
263.085	4.31093
263.303	3.61145
263.522	7.08085
263.74	7.92639
263.959	12.11732
264.178	6.18954
264.396	5.80982
264.615	4.12992
264.833	10.03999
265.051	7.48571
265.27	8.08664
265.488	8.85806
265.707	5.30573
265.925	8.66998
266.144	3.59489
266.362	5.43827
266.58	5.41935
266.799	3.97465
267.017	4.98099
267.235	4.52393
267.454	2.6471
267.672	1.60788
267.89	3.73318
268.109	4.04442
268.327	3.44672
268.545	0.64236
268.763	3.57371
268.982	1.42987
269.2	4.24399
269.418	2.23869
269.636	1.83415
269.854	3.14663
270.073	2.84731
270.291	1.2765
270.509	1.55911
270.727	3.46127
270.945	5.82857
271.163	5.9559
271.381	1.0452
271.599	2.4585
271.817	4.38855
272.036	1.48679
272.254	2.73428
272.472	2.00294
272.69	2.12628
272.908	2.06758
273.126	3.73112
273.344	4.59222
273.562	1.59248
273.779	2.36501
273.997	3.265
274.215	4.04937
274.433	2.75611
274.651	4.0665
274.869	3.8067
275.087	2.31086
275.305	3.9487
275.523	1.91679
275.74	2.97643
275.958	4.8356
276.176	6.85803
276.394	1.96529
276.612	2.74642
276.829	2.564
277.047	2.33208
277.265	2.37808
277.483	3.11354
277.7	3.85828
277.918	2.9099
278.136	5.41734
278.353	2.69191
278.571	1.36998
278.789	4.19671
279.006	0.8549
279.224	2.25711
279.442	4.32835
279.659	3.08512
279.877	2.43211
280.094	4.54451
280.312	1.01945
280.529	2.82259
280.747	0.81653
280.964	2.35703
281.182	5.09748
281.399	2.34138
281.617	3.23583
281.834	2.4001
282.052	1.78262
282.269	2.61614
282.487	1.95715
282.704	1.63304
282.921	2.15705
283.139	2.57164
283.356	3.86239
283.574	3.07968
283.791	1.57413
284.008	4.61735
284.226	2.36399
284.443	2.60441
284.66	3.50197
284.877	2.8526
285.095	1.92833
285.312	1.34234
285.529	0.90113
285.746	0.69385
285.964	1.60107
286.181	1.02745
286.398	1.81003
286.615	2.31598
286.832	2.26891
287.05	0.75862
287.267	1.72164
287.484	1.78669
287.701	2.30916
287.918	2.10965
288.135	2.53962
288.352	1.21547
288.569	1.22945
288.786	2.08516
289.003	1.78007
289.22	2.32327
289.437	1.51308
289.654	2.58321
289.871	2.83137
290.088	2.57728
290.305	1.98058
290.522	1.69786
290.739	1.89316
290.956	2.72269
291.173	3.28699
291.39	3.06239
291.607	2.40304
291.824	1.59789
292.04	1.05737
292.257	2.64355
292.474	2.8638
292.691	1.60557
292.908	0.88955
293.125	1.60991
293.341	0.74885
293.558	4.40903
293.775	1.63674
293.992	2.00639
294.208	0.8256
294.425	1.12455
294.642	1.64503
294.858	2.2741
295.075	0.63154
295.292	1.68093
295.508	2.05591
295.725	3.39351
295.942	1.63528
296.158	1.08689
296.375	1.87322
296.591	1.3808
296.808	1.50831
297.024	1.71924
297.241	1.84677
297.458	2.18077
297.674	0.26504
297.891	1.73397
298.107	1.27441
298.323	1.01209
298.54	2.59055
298.756	1.16834
298.973	0.62038
299.189	2.63363
299.406	1.03644
299.622	2.54174
299.838	2.45366
300.055	2.43013
300.271	0.70199
300.487	0.95759
300.704	1.08958
300.92	0.7518
301.136	3.71491
301.353	2.38271
301.569	1.69866
301.785	2.04615
302.001	2.45251
302.218	2.02946
302.434	2.04986
302.65	0.65103
302.866	1.52832
303.083	3.4646
303.299	3.35857
303.515	1.73847
303.731	1.9737
303.947	0.68692
304.163	1.16433
304.379	2.07687
304.595	2.19865
304.812	1.16711
305.028	1.11241
305.244	1.42442
305.46	2.53611
305.676	2.71354
305.892	3.13803
306.108	1.82623
306.324	1.29987
306.54	3.34221
306.756	2.36433
306.972	2.33185
307.187	1.55833
307.403	3.05729
307.619	1.25303
307.835	2.74703
308.051	3.04597
308.267	0.5718
308.483	2.63793
308.699	2.27803
308.914	1.93944
309.13	1.72958
309.346	0.42163
309.562	1.00372
309.778	0.55397
309.993	2.21614
310.209	1.68145
310.425	0.74394
310.641	1.53992
310.856	0.90098
311.072	0.80801
311.288	1.62251
311.503	1.9161
311.719	0.39025
311.935	0.23118
312.15	2.14928
312.366	1.73011
312.581	2.26867
312.797	2.01135
313.013	2.50957
313.228	1.29481
313.444	1.8106
313.659	1.25051
313.875	2.26856
314.09	1.81314
314.306	2.71344
314.521	2.51921
314.737	2.38252
314.952	2.22629
315.168	1.6248
315.383	2.50909
315.599	1.55706
315.814	1.35103
316.029	2.41843
316.245	0.86858
316.46	0.5973
316.675	2.94332
316.891	3.45651
317.106	4.1714
317.321	2.32798
317.537	2.29716
317.752	2.51442
317.967	2.67031
318.183	1.27606
318.398	1.57972
318.613	2.77378
318.828	3.13091
319.043	2.53672
319.259	1.56243
319.474	2.05486
319.689	2.80083
319.904	0.49947
320.119	2.51335
320.334	2.19408
320.549	1.70797
320.765	2.75685
320.98	2.12793
321.195	2.75059
321.41	2.02283
321.625	2.44599
321.84	3.36309
322.055	3.52694
322.27	1.37198
322.485	1.06892
322.7	2.00838
322.915	2.88368
323.13	1.11257
323.345	3.26573
323.56	2.71332
323.775	2.50757
323.989	2.36877
324.204	2.0874
324.419	2.71206
324.634	0.86134
324.849	1.72248
325.064	4.1901
325.279	2.98588
325.493	2.47852
325.708	2.7235
325.923	1.25275
326.138	1.35102
326.352	3.21397
326.567	2.73325
326.782	1.56268
326.997	1.28852
327.211	2.38765
327.426	2.10302
327.641	1.79282
327.855	0.61907
328.07	2.47408
328.285	3.48794
328.499	1.74004
328.714	2.44597
328.928	2.56282
329.143	2.13198
329.358	2.88839
329.572	2.93923
329.787	3.00642
330.001	4.20569
330.216	0.68842
330.43	3.45031
330.645	3.31045
330.859	2.81002
331.074	1.28221
331.288	2.12252
331.503	3.20439
331.717	1.05361
331.931	2.20056
332.146	2.16373
332.36	3.50828
332.575	2.40453
332.789	2.178
333.003	1.83793
333.218	2.50024
333.432	1.66892
333.646	2.52894
333.86	3.29325
334.075	3.61524
334.289	1.69804
334.503	1.18322
334.717	2.62398
334.932	2.45643
335.146	3.07689
335.36	1.89761
335.574	2.4624
335.788	2.42694
336.003	3.05707
336.217	2.62612
336.431	2.45567
336.645	1.60342
336.859	1.04852
337.073	1.8954
337.287	2.22886
337.501	1.14013
337.715	2.21153
337.929	2.73657
338.143	1.22352
338.357	2.07381
338.571	1.28224
338.785	2.59393
338.999	1.54917
339.213	1.75763
339.427	0.8684
339.641	2.98813
339.855	1.91181
340.069	1.52579
340.283	2.9584
340.497	3.59478
340.711	2.58299
340.924	1.84457
341.138	1.2472
341.352	0.85375
341.566	2.15975
341.78	0.78683
341.993	1.56011
342.207	1.26647
342.421	2.34496
342.635	2.07706
342.848	1.58306
343.062	0.3012
343.276	1.6127
343.49	3.88565
343.703	1.53932
343.917	2.65611
344.131	2.93914
344.344	1.56935
344.558	1.64373
344.771	1.27382
344.985	3.09641
345.199	3.37416
345.412	2.19277
345.626	2.40093
345.839	0.66799
346.053	1.22378
346.266	1.26993
346.48	2.76118
346.693	2.23318
346.907	2.52448
347.12	1.22953
347.334	2.34129
347.547	2.33517
347.76	1.93135
347.974	2.85082
348.187	2.32335
348.401	1.84884
348.614	1.61492
348.827	1.76102
349.041	2.47958
349.254	0.92527
349.467	1.98796
349.681	1.02837
349.894	1.67652
350.107	3.08429
350.32	3.33665
350.534	0.71848
350.747	1.65164
350.96	1.30045
351.173	1.42216
351.386	1.99409
351.6	1.73829
351.813	1.49261
352.026	2.08969
352.239	1.19981
352.452	1.75166
352.665	2.70352
352.878	1.78026
353.092	3.87168
353.305	2.63734
353.518	2.3967
353.731	1.39266
353.944	3.08924
354.157	1.5317
354.37	1.44501
354.583	1.12656
354.796	0.96168
355.009	2.86421
355.222	2.18676
355.435	2.02618
355.647	3.00663
355.86	1.30583
356.073	1.99395
356.286	1.65578
356.499	2.66905
356.712	2.61271
356.925	2.43783
357.138	2.75447
357.35	1.27294
357.563	1.83067
357.776	2.08674
357.989	1.92586
358.201	2.44554
358.414	2.05289
358.627	3.15598
358.84	1.96981
359.052	1.27943
359.265	1.30968
359.478	2.83865
359.69	0.07975
359.903	2.64437
360.116	2.78594
360.328	0.87135
360.541	2.75885
360.753	1.45083
360.966	1.80069
361.179	1.93518
361.391	1.75368
361.604	1.349
361.816	1.69787
362.029	1.58738
362.241	1.48877
362.454	1.82916
362.666	1.48036
362.879	2.22605
363.091	1.83845
363.304	1.40313
363.516	1.87726
363.728	1.2172
363.941	2.38445
364.153	1.82571
364.366	0.66202
364.578	1.32506
364.79	2.44964
365.003	2.06768
365.215	1.76666
365.427	2.49542
365.639	3.01984
365.852	2.34907
366.064	3.58886
366.276	1.69003
366.488	2.36927
366.701	1.75565
366.913	1.95601
367.125	2.05898
367.337	1.61116
367.549	1.72708
367.762	1.99272
367.974	2.06471
368.186	1.74497
368.398	2.89578
368.61	2.6124
368.822	2.53923
369.034	2.07356
369.246	2.82116
369.458	4.06471
369.67	1.40449
369.882	3.52436
370.094	0.78671
370.306	3.33314
370.518	2.00125
370.73	1.56355
370.942	1.68303
371.154	2.11139
371.366	1.86111
371.578	2.45316
371.79	1.77577
372.002	3.0854
372.214	3.73988
372.425	2.28298
372.637	3.27741
372.849	2.33661
373.061	0.81041
373.273	2.59506
373.484	2.62972
373.696	2.91625
373.908	0.69007
374.12	2.76486
374.331	2.75933
374.543	1.71775
374.755	1.55245
374.967	2.35151
375.178	2.99671
375.39	2.20853
375.602	2.41904
375.813	1.38105
376.025	1.45936
376.236	2.32099
376.448	2.36906
376.66	2.23203
376.871	2.27155
377.083	3.16615
377.294	3.44766
377.506	2.14079
377.717	3.41841
377.929	2.44452
378.14	1.95634
378.352	2.8022
378.563	2.93683
378.775	3.41278
378.986	1.93651
379.197	2.54588
379.409	2.17587
379.62	3.03466
379.832	2.7025
380.043	2.44309
380.254	2.53215
380.466	1.71179
380.677	4.56052
380.888	4.2564
381.1	4.40371
381.311	4.3015
381.522	2.65022
381.733	4.64434
381.945	2.36051
382.156	2.56668
382.367	2.38964
382.578	4.70758
382.789	4.91986
383.001	2.28986
383.212	3.78244
383.423	3.89113
383.634	3.45597
383.845	3.15402
384.056	2.30825
384.267	2.67781
384.478	2.55596
384.69	1.82592
384.901	3.22469
385.112	2.89437
385.323	3.94621
385.534	3.17773
385.745	3.12124
385.956	3.05915
386.167	2.20921
386.378	3.08728
386.588	2.27268
386.799	2.23364
387.01	1.73076
387.221	3.58147
387.432	2.92557
387.643	4.20327
387.854	2.73949
388.065	2.73107
388.275	2.78477
388.486	2.62849
388.697	2.91503
388.908	2.6472
389.119	3.87381
389.329	4.0921
389.54	3.07979
389.751	3.36527
389.962	3.80505
390.172	3.04374
390.383	2.93134
390.594	2.69888
390.804	2.48626
391.015	2.72455
391.226	3.19265
391.436	3.57513
391.647	3.45955
391.858	3.60378
392.068	2.12644
392.279	2.51882
392.489	3.2949
392.7	3.9189
392.91	2.83832
393.121	2.78492
393.331	3.63523
393.542	3.97206
393.752	3.71016
393.963	3.5756
394.173	3.53191
394.384	3.83171
394.594	3.44537
394.804	2.6874
395.015	3.53581
395.225	3.7318
395.436	2.77493
395.646	3.79128
395.856	3.05874
396.067	2.38831
396.277	4.09466
396.487	3.62823
396.697	3.72657
396.908	3.9913
397.118	3.73826
397.328	3.65648
397.538	4.01394
397.749	3.09864
397.959	3.98805
398.169	3.95283
398.379	2.58124
398.589	3.82627
398.8	3.72124
399.01	3.53207
399.22	3.47912
399.43	5.03049
399.64	3.36514
399.85	3.97323
400.06	3.64185
400.27	3.24114
400.48	3.47115
400.69	4.52841
400.9	3.4705
401.11	2.92491
401.32	4.14992
401.53	3.22941
401.74	4.58284
401.95	4.14348
402.16	3.14469
402.37	4.00589
402.58	3.41484
402.79	4.14866
403	4.45201
403.209	3.43119
403.419	4.33991
403.629	3.32328
403.839	4.30949
404.049	4.45224
404.258	3.39539
404.468	3.43816
404.678	4.33463
404.888	4.57325
405.097	3.56924
405.307	3.85856
405.517	4.28495
405.727	4.07692
405.936	3.81353
406.146	3.98079
406.356	4.71853
406.565	3.83672
406.775	3.57751
406.984	3.51373
407.194	5.16169
407.404	3.91782
407.613	4.23919
407.823	4.46397
408.032	4.6322
408.242	4.46948
408.451	3.62518
408.661	3.98137
408.87	5.10376
409.08	3.54879
409.289	4.36148
409.499	4.03819
409.708	4.07116
409.918	2.77155
410.127	4.10004
410.336	5.13714
410.546	4.57075
410.755	3.78518
410.964	3.76075
411.174	3.46863
411.383	4.41145
411.592	4.34364
411.802	3.59556
412.011	4.58412
412.22	3.966
412.429	5.24726
412.639	4.95041
412.848	4.91805
413.057	5.22776
413.266	4.72681
413.475	4.17042
413.685	4.64095
413.894	4.55501
414.103	5.11796
414.312	4.7227
414.521	4.10112
414.73	4.42716
414.939	5.65593
415.148	4.91593
415.357	4.52696
415.566	4.19344
415.776	4.2241
415.985	4.18059
416.194	5.13708
416.403	5.65132
416.611	3.69821
416.82	4.12173
417.029	4.6955
417.238	4.2742
417.447	4.23534
417.656	4.56769
417.865	4.38019
418.074	4.75507
418.283	5.13122
418.492	6.00102
418.7	5.9061
418.909	7.00791
419.118	5.82687
419.327	6.42174
419.536	6.20246
419.744	6.17157
419.953	7.35088
420.162	7.53303
420.371	6.62188
420.579	6.99948
420.788	7.87991
420.997	8.18144
421.205	8.11913
421.414	7.96747
421.623	7.96431
421.831	7.48199
422.04	8.20779
422.249	7.2373
422.457	7.63597
422.666	6.88069
422.874	7.90372
423.083	8.10722
423.291	7.81347
423.5	7.8389
423.708	8.21889
423.917	8.63729
424.125	8.08681
424.334	7.7888
424.542	9.55695
424.751	8.97209
424.959	8.40692
425.167	8.79526
425.376	8.44099
425.584	7.40342
425.793	7.48679
426.001	6.45674
426.209	7.06714
426.418	5.92522
426.626	5.61898
426.834	5.27817
427.042	5.28049
427.251	5.02365
427.459	5.68019
427.667	5.36698
