Data from WindowProjectSample_Transmission__84__00084.txt Node

Date: Sat May 03 18:09:18 EDT 2025
User: jessi
Spectrometer: SR400872
Trigger mode: 0
Integration Time (sec): 5.000010E-1
Scans to average: 6
Electric dark correction enabled: true
Nonlinearity correction enabled: true
Boxcar width: 0
XAxis mode: Wavelengths
Number of Pixels in Spectrum: 3648
>>>>>Begin Spectral Data<<<<<
184.909	3347.06165
185.132	4157.27632
185.355	-4140.74818
185.578	4154.35031
185.801	-478.75335
186.024	-5124.51571
186.247	1598.88733
186.47	565.87048
186.693	-65.24338
186.916	4121.91166
187.139	3081.72975
187.362	-1925.23404
187.585	5558.40763
187.808	26360.40031
188.031	29.85648
188.254	-4288.51059
188.476	855.75852
188.699	3530.52771
188.922	-279.43147
189.145	-6895.56491
189.368	-348.0314
189.591	-745.40802
189.813	-2940.62356
190.036	922.78397
190.259	-9672.16453
190.482	1291.56965
190.705	3987.19803
190.927	-2003.59076
191.15	-6794.36874
191.373	6390.96049
191.595	-1136.54714
191.818	2143.76329
192.041	-569.44162
192.263	1880.18121
192.486	-2741.91941
192.709	-23490.35892
192.931	1746.04469
193.154	-3689.52881
193.377	-2448.85655
193.599	4570.43676
193.822	1760.79805
194.044	5813.22411
194.267	1003.92283
194.489	-128.98912
194.712	2515.63265
194.934	8546.34994
195.157	-24042.4204
195.379	2132.46654
195.602	1747.96355
195.824	1527.28378
196.047	47683.69062
196.269	3175.57742
196.492	-1941.92802
196.714	-1305.52131
196.936	1872.25565
197.159	-11548.2327
197.381	-391.0062
197.604	-4358.71618
197.826	-16248.1624
198.048	10558.19139
198.271	-8437.87998
198.493	4379.41474
198.715	3494.08889
198.938	-748.98539
199.16	-17410.58732
199.382	1178.2214
199.604	-1797.37446
199.827	-3581.46842
200.049	2280.72329
200.271	-6991.93526
200.493	-46941.40511
200.715	3740.2235
200.938	-3024.44976
201.16	-2651.2193
201.382	-1644.44237
201.604	-3093.6499
201.826	3292.4483
202.048	3680.41539
202.27	-1162.07534
202.492	-3454.5185
202.715	-1317.59897
202.937	-17171.23247
203.159	2540.73912
203.381	2381.83729
203.603	-2992.72909
203.825	-1057.63933
204.047	56139.77589
204.269	-1293.66874
204.491	-1196.22721
204.713	65713.57913
204.935	-3314.21072
205.156	-997.22299
205.378	-4919.06428
205.6	-1299.53884
205.822	2348.82873
206.044	-468.84313
206.266	6791.62271
206.488	828.1765
206.71	3216.34781
206.932	1633.64538
207.153	-1547.39704
207.375	-2761.28443
207.597	3938.79504
207.819	29266.56508
208.041	4355.55025
208.262	-1511.81646
208.484	-1000.07196
208.706	-1521.30658
208.927	3343.6333
209.149	4154.05142
209.371	-5500.33049
209.593	516.02832
209.814	-30228.49814
210.036	2604.71621
210.258	-845.80337
210.479	4330.79379
210.701	-3015.53358
210.922	-11568.62959
211.144	-869.10881
211.366	5176.73443
211.587	-2125.32881
211.809	-5077.59572
212.03	-882.80117
212.252	-715.80535
212.473	3395.56231
212.695	-705.76675
212.916	-885.20947
213.138	554.93215
213.359	-1504.90645
213.581	12996.10534
213.802	-1897.84829
214.024	-2366.10184
214.245	-6950.86735
214.466	-378.42981
214.688	-3072.28689
214.909	-21004.07476
215.131	-4563.09848
215.352	-2261.46851
215.573	11491.72455
215.795	1632.61042
216.016	6425.16539
216.237	-610.28933
216.459	6192.14866
216.68	-3458.81543
216.901	-2950.13911
217.122	-1925.25296
217.344	-6907.06095
217.565	-3029.21675
217.786	2218.48638
218.007	1558.02077
218.228	-612.00466
218.45	-4328.17352
218.671	1473.4633
218.892	3683.45827
219.113	1644.23178
219.334	219.38062
219.555	-7028.02018
219.776	12278.39554
219.997	4142.10783
220.219	1702.83621
220.44	1089.33947
220.661	1073.53013
220.882	-2746.17514
221.103	-1134.30178
221.324	2621.39279
221.545	3045.55788
221.766	-3463.80919
221.987	-537.61627
222.208	-10422.07009
222.429	168749.87231
222.65	-147.62493
222.87	-9848.67293
223.091	2694.47862
223.312	-1255.60273
223.533	2496.48759
223.754	2092.74475
223.975	2743.81434
224.196	-6060.6399
224.417	-2903.30079
224.637	7958.28354
224.858	1481.7215
225.079	1273.03108
225.3	1122.76213
225.521	4880.76267
225.741	886.47227
225.962	1211.22408
226.183	-525.17267
226.404	1486.48979
226.624	1149.0096
226.845	1413.10803
227.066	914.85574
227.286	543.84473
227.507	207.28654
227.728	206.89058
227.948	289.18291
228.169	92.84292
228.389	95.58927
228.61	46.72617
228.831	65.36071
229.051	4.43956
229.272	38.04673
229.492	50.05443
229.713	14.92545
229.933	36.52307
230.154	33.87022
230.374	55.18139
230.595	40.09303
230.815	27.34143
231.036	39.86915
231.256	-8.50528
231.477	77.45749
231.697	47.85799
231.917	47.0152
232.138	68.34778
232.358	130.37733
232.579	124.05884
232.799	19.63933
233.019	110.15543
233.24	141.68792
233.46	47.81499
233.68	90.33858
233.901	55.85025
234.121	34.3569
234.341	15.47546
234.561	-4.57537
234.782	32.13015
235.002	85.39412
235.222	0.39628
235.442	69.62856
235.662	34.44454
235.883	77.56832
236.103	66.19672
236.323	49.57151
236.543	36.28863
236.763	48.42004
236.983	48.40029
237.203	49.74158
237.423	74.77275
237.643	104.33267
237.864	89.23549
238.084	25.15954
238.304	36.51848
238.524	63.50337
238.744	45.93957
238.964	75.24969
239.184	69.47344
239.404	71.35816
239.624	39.67998
239.843	68.82196
240.063	39.40533
240.283	25.29175
240.503	27.22502
240.723	27.59478
240.943	13.55565
241.163	21.29365
241.383	15.11866
241.603	7.24599
241.822	8.88469
242.042	7.36163
242.262	8.64552
242.482	10.13937
242.702	11.37334
242.921	3.89681
243.141	8.05653
243.361	6.88713
243.581	9.59359
243.8	8.757
244.02	5.6347
244.24	10.43639
244.459	10.60426
244.679	20.02456
244.899	13.02392
245.118	15.76922
245.338	12.75924
245.558	17.12556
245.777	9.7091
245.997	11.06369
246.216	10.59194
246.436	6.05655
246.655	4.42618
246.875	3.4134
247.094	6.55334
247.314	2.09512
247.533	3.62262
247.753	4.86271
247.972	3.71094
248.192	1.49915
248.411	2.35142
248.631	4.11292
248.85	5.28238
249.07	3.90543
249.289	7.178
249.508	4.85116
249.728	8.02115
249.947	8.86641
250.166	8.98163
250.386	5.53416
250.605	7.69178
250.824	11.56627
251.044	8.39866
251.263	27.07755
251.482	13.92667
251.701	14.26179
251.921	0.29376
252.14	4.85665
252.359	4.39861
252.578	10.95803
252.798	3.89559
253.017	10.4662
253.236	5.56464
253.455	7.06502
253.674	13.02523
253.893	5.23391
254.112	8.60552
254.331	13.34599
254.551	10.32449
254.77	4.95063
254.989	17.03111
255.208	14.68273
255.427	16.63131
255.646	16.46735
255.865	23.86343
256.084	9.87587
256.303	12.97159
256.522	15.00762
256.741	3.21579
256.96	4.42693
257.179	10.58082
257.397	11.86933
257.616	5.48232
257.835	7.30273
258.054	16.59152
258.273	10.49284
258.492	12.20457
258.711	7.37723
258.93	3.15673
259.148	4.49566
259.367	4.79606
259.586	6.02598
259.805	2.93099
260.023	5.43986
260.242	4.14172
260.461	2.93519
260.68	1.68028
260.898	4.84827
261.117	1.74882
261.336	1.12037
261.554	4.07076
261.773	4.22436
261.992	0.8652
262.21	4.48706
262.429	5.28745
262.648	8.20034
262.866	8.85061
263.085	6.13623
263.303	5.34188
263.522	9.74105
263.74	10.11523
263.959	16.54943
264.178	8.27677
264.396	7.7397
264.615	5.39826
264.833	12.81807
265.051	11.51784
265.27	11.35125
265.488	12.09428
265.707	7.4006
265.925	12.38057
266.144	5.51384
266.362	7.07901
266.58	6.80449
266.799	5.79508
267.017	6.69023
267.235	5.99999
267.454	3.57752
267.672	2.53969
267.89	5.05061
268.109	5.31572
268.327	5.04316
268.545	1.28779
268.763	4.42224
268.982	1.70673
269.2	5.89167
269.418	3.83881
269.636	2.78679
269.854	4.81201
270.073	3.70426
270.291	2.03366
270.509	2.56936
270.727	4.96361
270.945	7.65206
271.163	8.21828
271.381	1.94024
271.599	3.19209
271.817	5.76281
272.036	2.05443
272.254	3.41842
272.472	2.8877
272.69	3.04992
272.908	2.8465
273.126	4.85106
273.344	6.05697
273.562	2.17881
273.779	3.05623
273.997	4.30246
274.215	5.0368
274.433	3.4043
274.651	5.24764
274.869	5.15686
275.087	3.30421
275.305	5.02061
275.523	2.89253
275.74	3.64603
275.958	5.9231
276.176	8.52081
276.394	3.04698
276.612	3.66187
276.829	3.48328
277.047	2.93172
277.265	3.72188
277.483	3.93552
277.7	4.83989
277.918	3.86671
278.136	6.89016
278.353	3.70688
278.571	1.98362
278.789	5.70774
279.006	1.37667
279.224	3.29302
279.442	5.81087
279.659	4.06266
279.877	2.87581
280.094	6.3748
280.312	1.44825
280.529	4.23446
280.747	1.2123
280.964	3.17554
281.182	6.88551
281.399	2.92794
281.617	4.50316
281.834	2.75214
282.052	2.59912
282.269	3.43561
282.487	2.76315
282.704	2.25704
282.921	2.56233
283.139	3.53268
283.356	4.90894
283.574	4.02301
283.791	2.31084
284.008	5.86316
284.226	2.9525
284.443	3.74166
284.66	4.81037
284.877	3.98875
285.095	2.57762
285.312	1.72741
285.529	1.26139
285.746	0.73806
285.964	2.44796
286.181	1.37813
286.398	2.25327
286.615	2.9512
286.832	3.09625
287.05	0.85135
287.267	2.16033
287.484	2.38267
287.701	3.05313
287.918	2.90866
288.135	2.96095
288.352	1.44848
288.569	1.92874
288.786	2.56959
289.003	2.12352
289.22	3.12127
289.437	2.05949
289.654	3.34683
289.871	3.57309
290.088	3.5089
290.305	2.61352
290.522	2.00318
290.739	2.4394
290.956	3.48843
291.173	4.21626
291.39	3.92427
291.607	2.65865
291.824	2.13799
292.04	1.33201
292.257	3.4543
292.474	3.44302
292.691	2.2385
292.908	1.27212
293.125	2.20755
293.341	1.29166
293.558	5.79282
293.775	2.33453
293.992	2.42985
294.208	1.14578
294.425	1.42264
294.642	2.20404
294.858	3.27072
295.075	0.91795
295.292	2.29366
295.508	2.72786
295.725	4.23628
295.942	2.04272
296.158	1.52006
296.375	2.38079
296.591	1.86694
296.808	2.06771
297.024	2.21514
297.241	2.41581
297.458	2.71045
297.674	0.24776
297.891	2.15572
298.107	1.7051
298.323	1.3074
298.54	3.08304
298.756	1.61074
298.973	0.727
299.189	3.35556
299.406	1.56094
299.622	3.31535
299.838	3.39239
300.055	3.05317
300.271	0.95325
300.487	1.28636
300.704	1.66245
300.92	1.16067
301.136	4.69903
301.353	3.23532
301.569	2.51045
301.785	2.81108
302.001	3.20665
302.218	2.97324
302.434	3.01618
302.65	1.22583
302.866	2.06209
303.083	4.79848
303.299	4.68741
303.515	2.64512
303.731	3.11014
303.947	1.52694
304.163	1.95592
304.379	2.80599
304.595	3.17402
304.812	1.94465
305.028	1.75813
305.244	2.3355
305.46	3.45377
305.676	3.53788
305.892	4.37005
306.108	3.32579
306.324	2.46476
306.54	4.88286
306.756	3.41039
306.972	3.1584
307.187	2.69851
307.403	4.303
307.619	2.10823
307.835	3.83377
308.051	4.30266
308.267	1.45128
308.483	4.26656
308.699	3.49536
308.914	2.97862
309.13	2.85787
309.346	1.52905
309.562	2.19508
309.778	1.51735
309.993	3.52552
310.209	3.33814
310.425	1.85453
310.641	3.04054
310.856	2.14993
311.072	1.90451
311.288	2.86284
311.503	3.44048
311.719	1.39685
311.935	1.57045
312.15	3.79016
312.366	3.44316
312.581	3.76298
312.797	3.422
313.013	3.85187
313.228	2.6773
313.444	2.87783
313.659	2.39259
313.875	3.67115
314.09	2.99264
314.306	4.3397
314.521	3.91088
314.737	3.82339
314.952	3.11135
315.168	3.1935
315.383	3.60694
315.599	2.61363
315.814	3.10117
316.029	3.86005
316.245	2.27823
316.46	1.35471
316.675	4.37865
316.891	5.01712
317.106	5.9093
317.321	3.70595
317.537	3.66806
317.752	4.12383
317.967	4.28717
318.183	2.3157
318.398	2.72332
318.613	4.156
318.828	4.60325
319.043	3.69104
319.259	2.75192
319.474	3.37968
319.689	4.0843
319.904	1.42204
320.119	4.35624
320.334	3.34044
320.549	3.07697
320.765	4.25801
320.98	3.4944
321.195	3.80938
321.41	3.44753
321.625	3.95596
321.84	4.70774
322.055	4.92688
322.27	2.45049
322.485	1.97413
322.7	3.53376
322.915	4.32218
323.13	2.85533
323.345	5.12321
323.56	3.81599
323.775	4.03403
323.989	4.02556
324.204	3.43725
324.419	4.37567
324.634	2.29732
324.849	3.18237
325.064	5.77355
325.279	4.72947
325.493	3.89204
325.708	4.42585
325.923	2.63696
326.138	3.07079
326.352	4.93678
326.567	4.09904
326.782	2.89485
326.997	2.90695
327.211	4.12054
327.426	3.69568
327.641	3.36252
327.855	1.96471
328.07	4.3087
328.285	5.59584
328.499	3.0979
328.714	3.86703
328.928	3.86535
329.143	3.85841
329.358	4.52157
329.572	4.46547
329.787	5.09906
330.001	6.36104
330.216	1.7256
330.43	5.73419
330.645	4.98401
330.859	4.29975
331.074	2.56519
331.288	3.65881
331.503	5.42574
331.717	2.46821
331.931	3.56267
332.146	3.88203
332.36	5.63181
332.575	3.90472
332.789	3.52963
333.003	3.8342
333.218	4.20498
333.432	3.17618
333.646	4.38854
333.86	5.40888
334.075	5.38685
334.289	3.25921
334.503	2.36386
334.717	4.44693
334.932	3.98942
335.146	4.64236
335.36	2.76117
335.574	4.44624
335.788	3.9986
336.003	4.60756
336.217	4.79529
336.431	4.14251
336.645	3.0596
336.859	2.6082
337.073	3.77691
337.287	4.03713
337.501	2.62043
337.715	4.21702
337.929	4.26041
338.143	2.51645
338.357	3.74792
338.571	3.60658
338.785	4.83438
338.999	3.06453
339.213	3.53143
339.427	2.55988
339.641	5.00245
339.855	3.323
340.069	2.93379
340.283	4.88535
340.497	5.29083
340.711	4.36367
340.924	3.73846
341.138	2.92012
341.352	2.52372
341.566	4.004
341.78	2.62574
341.993	3.50592
342.207	3.09278
342.421	4.21307
342.635	3.87707
342.848	3.67556
343.062	1.54116
343.276	3.13203
343.49	5.85415
343.703	3.05171
343.917	4.79615
344.131	5.19846
344.344	3.01053
344.558	3.57331
344.771	2.83874
344.985	4.9757
345.199	5.62808
345.412	4.37617
345.626	4.38194
345.839	2.24939
346.053	2.92137
346.266	3.25577
346.48	4.5509
346.693	4.4483
346.907	4.33574
347.12	3.0546
347.334	3.99647
347.547	4.28412
347.76	4.03082
347.974	4.87159
348.187	4.21197
348.401	3.74908
348.614	2.94224
348.827	4.02606
349.041	4.34331
349.254	2.41849
349.467	3.58956
349.681	3.07431
349.894	2.99868
350.107	5.15899
350.32	5.85647
350.534	2.49875
350.747	3.54648
350.96	3.27378
351.173	3.44435
351.386	3.71837
351.6	3.51143
351.813	3.70672
352.026	4.01901
352.239	3.00502
352.452	3.42222
352.665	5.11919
352.878	3.50233
353.092	6.00744
353.305	4.78102
353.518	3.99324
353.731	2.82793
353.944	5.194
354.157	3.33494
354.37	3.6157
354.583	2.82184
354.796	3.07574
355.009	4.90294
355.222	4.1336
355.435	4.1972
355.647	5.35285
355.86	3.469
356.073	4.34314
356.286	3.63129
356.499	5.07651
356.712	4.86917
356.925	4.55336
357.138	5.15004
357.35	3.43783
357.563	3.80948
357.776	4.47233
357.989	4.40743
358.201	4.77664
358.414	4.58203
358.627	5.54931
358.84	4.2069
359.052	3.24329
359.265	3.67381
359.478	5.22025
359.69	2.17407
359.903	5.15018
360.116	5.35151
360.328	3.06474
360.541	5.23645
360.753	4.01883
360.966	4.23509
361.179	4.59865
361.391	4.28738
361.604	3.7992
361.816	4.20744
362.029	4.26331
362.241	3.98089
362.454	4.61546
362.666	3.88405
362.879	5.05294
363.091	4.3201
363.304	4.15765
363.516	4.35958
363.728	3.73123
363.941	4.99866
364.153	4.63821
364.366	2.93654
364.578	3.66828
364.79	5.07898
365.003	4.80372
365.215	4.15018
365.427	5.24602
365.639	5.69494
365.852	4.91791
366.064	6.0195
366.276	4.46677
366.488	4.90247
366.701	4.46171
366.913	4.43685
367.125	4.57878
367.337	4.23915
367.549	4.40773
367.762	4.51232
367.974	4.67217
368.186	4.66839
368.398	5.49034
368.61	5.04701
368.822	5.28762
369.034	4.50667
369.246	5.78876
369.458	6.85558
369.67	4.08707
369.882	6.13648
370.094	3.11879
370.306	6.11241
370.518	4.59826
370.73	4.60338
370.942	4.5891
371.154	4.88806
371.366	4.9315
371.578	5.56038
371.79	4.87102
372.002	5.86356
372.214	6.83971
372.425	4.81481
372.637	6.37017
372.849	5.43191
373.061	3.32526
373.273	5.52651
373.484	5.44481
373.696	5.78972
373.908	3.2145
374.12	5.83745
374.331	5.84091
374.543	4.63425
374.755	4.45473
374.967	5.20629
375.178	6.19174
375.39	5.03079
375.602	5.32517
375.813	4.1148
376.025	4.36363
376.236	5.56982
376.448	5.52332
376.66	5.37436
376.871	5.57112
377.083	6.25857
377.294	7.1817
377.506	5.23356
377.717	6.50223
377.929	5.79207
378.14	5.44585
378.352	6.02393
378.563	6.49745
378.775	6.6805
378.986	4.88252
379.197	6.097
379.409	5.26244
379.62	6.3195
379.832	6.08877
380.043	5.59774
380.254	6.11069
380.466	4.75153
380.677	8.0797
380.888	7.39598
381.1	8.08417
381.311	8.14149
381.522	6.43029
381.733	8.16548
381.945	5.97825
382.156	5.69629
382.367	5.96689
382.578	8.61594
382.789	8.47552
383.001	5.52498
383.212	7.63699
383.423	7.661
383.634	7.14521
383.845	7.00858
384.056	5.9101
384.267	6.41626
384.478	6.5205
384.69	5.50334
384.901	6.96717
385.112	6.72614
385.323	8.15316
385.534	6.96769
385.745	7.02726
385.956	6.79971
386.167	5.87685
386.378	7.09915
386.588	6.29225
386.799	5.99169
387.01	5.66354
387.221	7.34649
387.432	6.78858
387.643	8.08109
387.854	6.44094
388.065	6.51189
388.275	6.70615
388.486	6.46509
388.697	7.01954
388.908	6.36453
389.119	7.87533
389.329	8.14058
389.54	7.12237
389.751	7.47838
389.962	8.13258
390.172	7.03013
390.383	7.05337
390.594	6.49461
390.804	6.58599
391.015	6.96282
391.226	7.25473
391.436	7.90263
391.647	7.65137
391.858	7.64264
392.068	6.20022
392.279	6.83964
392.489	7.65534
392.7	7.99876
392.91	7.00173
393.121	7.14
393.331	7.83075
393.542	8.50791
393.752	8.31917
393.963	7.82108
394.173	8.00844
394.384	8.12284
394.594	7.78929
394.804	6.94316
395.015	7.89781
395.225	8.08286
395.436	6.9547
395.646	8.09945
395.856	7.5275
396.067	6.79228
396.277	8.50781
396.487	7.87592
396.697	8.17791
396.908	8.56884
397.118	8.38354
397.328	7.93056
397.538	8.52378
397.749	7.49558
397.959	8.73234
398.169	8.24323
398.379	7.03524
398.589	8.14847
398.8	8.5002
399.01	8.34499
399.22	8.01633
399.43	9.60607
399.64	8.15587
399.85	8.52778
400.06	8.33454
400.27	7.76521
400.48	7.78484
400.69	8.92236
400.9	7.74335
401.11	7.44795
401.32	8.72085
401.53	7.96342
401.74	9.22493
401.95	8.51103
402.16	7.99478
402.37	8.46626
402.58	7.94299
402.79	8.66265
403	8.81885
403.209	7.88603
403.419	9.10361
403.629	8.00415
403.839	9.11085
404.049	9.36835
404.258	8.06203
404.468	8.20321
404.678	9.19373
404.888	9.33638
405.097	8.54217
405.307	8.39392
405.517	9.14927
405.727	9.11679
405.936	8.39295
406.146	8.99692
406.356	9.74044
406.565	8.7759
406.775	8.45574
406.984	8.33817
407.194	10.37499
407.404	8.87847
407.613	9.25689
407.823	9.48059
408.032	9.66333
408.242	9.51934
408.451	8.45492
408.661	8.73449
408.87	9.8833
409.08	8.54143
409.289	9.09574
409.499	9.09927
409.708	8.90453
409.918	7.49981
410.127	9.33437
410.336	10.06793
410.546	9.56328
410.755	8.81032
410.964	8.74171
411.174	8.26958
411.383	9.65742
411.592	9.12744
411.802	8.46406
412.011	9.58883
412.22	9.09231
412.429	9.77595
412.639	10.10027
412.848	9.65652
413.057	10.19473
413.266	9.69047
413.475	9.37213
413.685	9.59397
413.894	9.82322
414.103	9.79218
414.312	9.69934
414.521	8.97998
414.73	9.53262
414.939	10.54797
415.148	9.65236
415.357	9.53029
415.566	9.28852
415.776	9.11385
415.985	9.1924
416.194	10.05609
416.403	10.88969
416.611	8.69255
416.82	9.14673
417.029	9.95905
417.238	9.20375
417.447	9.20548
417.656	9.67286
417.865	9.43754
418.074	10.01887
418.283	10.9157
418.492	12.12821
418.7	11.71895
418.909	13.49858
419.118	12.16958
419.327	12.77903
419.536	12.57596
419.744	12.84479
419.953	14.42261
420.162	14.59631
420.371	13.99321
420.579	14.73926
420.788	15.72063
420.997	15.95281
421.205	16.36481
421.414	15.80318
421.623	16.15845
421.831	15.52767
422.04	16.10091
422.249	15.13707
422.457	15.3927
422.666	14.50568
422.874	15.47905
423.083	15.59034
423.291	15.48846
423.5	15.558
423.708	16.08125
423.917	16.75551
424.125	16.07598
424.334	15.81057
424.542	17.87981
424.751	17.11418
424.959	16.54202
425.167	16.65491
425.376	16.44895
425.584	15.0349
425.793	14.85466
426.001	13.7051
426.209	13.81885
