Data from WindowProjectSample3_Transmission__65__00065.txt Node

Date: Sun May 04 11:47:33 EDT 2025
User: jessi
Spectrometer: SR400872
Trigger mode: 0
Integration Time (sec): 5.000050E-1
Scans to average: 20
Electric dark correction enabled: true
Nonlinearity correction enabled: true
Boxcar width: 0
XAxis mode: Wavelengths
Number of Pixels in Spectrum: 3648
>>>>>Begin Spectral Data<<<<<
184.909	-1405.13613
185.132	-1274.14617
185.355	-1564.49808
185.578	-1545.91387
185.801	1197.71787
186.024	-1308.29137
186.247	-24125.73009
186.47	-2476.71801
186.693	-4148.49442
186.916	-771.76979
187.139	-977.24056
187.362	-1292.43911
187.585	-1104.56916
187.808	-1184.18052
188.031	571.04027
188.254	-1139.93812
188.476	-882.23398
188.699	-1079.4956
188.922	297.41806
189.145	-1017.77249
189.368	6891.04954
189.591	3534.03208
189.813	-4277.98061
190.036	-1380.39928
190.259	-7865.28161
190.482	-3501.93181
190.705	-2855.45928
190.927	-1968.43481
191.15	-1350.20118
191.373	-3902.42361
191.595	31008.75541
191.818	-3251.95755
192.041	-1059.68793
192.263	-1634.27207
192.486	-790.76675
192.709	-1912.31622
192.931	-4862.82765
193.154	-1386.06357
193.377	-1667.84166
193.599	1244.60435
193.822	8868.55903
194.044	-10361.37029
194.267	-3570.29786
194.489	-43.09344
194.712	-1911.33633
194.934	-2637.33215
195.157	-625.63106
195.379	-4607.75903
195.602	-1574.59786
195.824	-2415.40928
196.047	2620.19583
196.269	-1300.6423
196.492	-1351.01648
196.714	-999.16702
196.936	-2178.87817
197.159	-3930.99748
197.381	-1162.49401
197.604	-8605.56389
197.826	-2337.87582
198.048	-2337.69104
198.271	-1428.73089
198.493	-2357.51763
198.715	-3354.78597
198.938	-8384.45277
199.16	-4828.66905
199.382	-1487.7303
199.604	-1503.12256
199.827	-3746.602
200.049	-19020.20701
200.271	-1204.95194
200.493	-4598.89
200.715	-1051.55026
200.938	-933.67235
201.16	-933.2857
201.382	-3019.44619
201.604	-3659.09953
201.826	-1190.8031
202.048	-1729.89705
202.27	-1163.49967
202.492	-1504.53067
202.715	-1646.32657
202.937	-4409.46794
203.159	-4914.5011
203.381	6340.20051
203.603	-1425.00787
203.825	6053.19642
204.047	-2631.88783
204.269	3594.2148
204.491	-2500.67303
204.713	-1527.14097
204.935	-1074.14521
205.156	-4279.89275
205.378	-2728.77265
205.6	-1584.83552
205.822	-1626.21026
206.044	1243.85728
206.266	-19270.84025
206.488	-1313.8914
206.71	-3026.68113
206.932	24740.00123
207.153	-1377.7449
207.375	-2689.24491
207.597	-1309.34773
207.819	-1540.94837
208.041	-1283.22764
208.262	-1450.8511
208.484	-1965.9914
208.706	-9689.19961
208.927	-2025.00849
209.149	-10320.28035
209.371	-1329.14059
209.593	1198.11098
209.814	-2309.547
210.036	519.1943
210.258	-1399.3243
210.479	-3021.14436
210.701	-6293.60299
210.922	-2668.50904
211.144	3917.11656
211.366	-2158.98946
211.587	1669.88231
211.809	-2336.34764
212.03	180107.63188
212.252	487.41077
212.473	-39687.67271
212.695	3280.62286
212.916	-3034.79686
213.138	833.74001
213.359	-1202.78768
213.581	-9004.85183
213.802	-1241.95014
214.024	-5785.866
214.245	3356.65035
214.466	554.21492
214.688	-2227.63437
214.909	-1812.61811
215.131	-3306.78549
215.352	17682.85096
215.573	-1636.81795
215.795	-4423.12359
216.016	-1886.25276
216.237	1249.46
216.459	10349.99514
216.68	-1623.15321
216.901	-3712.84789
217.122	18644.81009
217.344	-1741.12961
217.565	-1890.94245
217.786	-2354.93622
218.007	5350.68151
218.228	6432.16978
218.45	-2922.65346
218.671	20795.49892
218.892	-3522.65971
219.113	-7754.61363
219.334	-50.76859
219.555	-15414.95843
219.776	-2307.80675
219.997	-2438.3082
220.219	-2727.38713
220.44	7932.32688
220.661	9129.22072
220.882	-5216.63761
221.103	2385.58659
221.324	7342.87959
221.545	-9649.68302
221.766	-2441.15342
221.987	1125.55331
222.208	1802.80463
222.429	-1596.46617
222.65	191.62628
222.87	758.0962
223.091	3394.18913
223.312	528.63282
223.533	6462.71118
223.754	-4959.84849
223.975	1741.34408
224.196	1136.68713
224.417	6458.11813
224.637	723.76828
224.858	97.21952
225.079	757.99239
225.3	481.57484
225.521	-2130.42548
225.741	604.37929
225.962	605.59888
226.183	130.50274
226.404	1286.27072
226.624	468.05333
226.845	709.85751
227.066	481.99088
227.286	279.6896
227.507	124.65061
227.728	100.66924
227.948	205.16093
228.169	64.38527
228.389	68.32266
228.61	41.26747
228.831	54.16039
229.051	5.65656
229.272	33.88871
229.492	47.8133
229.713	14.39931
229.933	35.25181
230.154	28.66324
230.374	47.96539
230.595	36.43494
230.815	22.04041
231.036	35.70615
231.256	-3.63327
231.477	61.85369
231.697	36.5801
231.917	40.2927
232.138	56.72396
232.358	110.95854
232.579	91.3684
232.799	15.68958
233.019	85.60496
233.24	98.10775
233.46	38.08826
233.68	52.63911
233.901	36.60912
234.121	25.51514
234.341	9.92134
234.561	-3.1401
234.782	19.12273
235.002	59.77422
235.222	1.02314
235.442	52.91421
235.662	27.19872
235.883	53.63311
236.103	43.46145
236.323	32.73949
236.543	26.90039
236.763	34.61473
236.983	37.18984
237.203	34.27748
237.423	50.08449
237.643	75.29313
237.864	62.75735
238.084	17.6692
238.304	21.6129
238.524	38.96063
238.744	32.925
238.964	55.84853
239.184	48.72831
239.404	52.84434
239.624	29.053
239.843	47.0453
240.063	28.01528
240.283	18.17897
240.503	21.36238
240.723	20.64994
240.943	12.99141
241.163	16.56166
241.383	12.13394
241.603	6.25529
241.822	7.34432
242.042	5.34437
242.262	7.47432
242.482	8.13121
242.702	9.13086
242.921	3.21475
243.141	6.29486
243.361	5.80785
243.581	8.33477
243.8	7.4411
244.02	4.94142
244.24	8.5011
244.459	7.67511
244.679	15.87913
244.899	10.03448
245.118	12.1414
245.338	10.8876
245.558	11.72981
245.777	7.73299
245.997	8.74703
246.216	8.71572
246.436	5.15006
246.655	3.93133
246.875	3.02375
247.094	5.45353
247.314	1.9966
247.533	3.50551
247.753	3.82886
247.972	3.18941
248.192	1.12886
248.411	1.91737
248.631	3.20103
248.85	4.05875
249.07	4.11237
249.289	5.6535
249.508	4.25304
249.728	6.71974
249.947	6.52233
250.166	8.2245
250.386	4.45818
250.605	6.54106
250.824	10.0567
251.044	6.66466
251.263	19.7616
251.482	11.54362
251.701	9.78696
251.921	0.09481
252.14	3.2374
252.359	3.88212
252.578	8.84985
252.798	3.21927
253.017	7.4775
253.236	4.09851
253.455	5.37024
253.674	10.37778
253.893	4.41827
254.112	7.41622
254.331	10.36793
254.551	8.32524
254.77	4.38128
254.989	12.0527
255.208	8.7559
255.427	13.3071
255.646	11.36844
255.865	16.58973
256.084	7.54303
256.303	9.43252
256.522	11.18913
256.741	3.03238
256.96	3.34416
257.179	7.90285
257.397	9.14383
257.616	4.94696
257.835	5.2543
258.054	13.31208
258.273	8.83295
258.492	9.03091
258.711	6.0228
258.93	2.79945
259.148	4.14009
259.367	3.74063
259.586	4.79395
259.805	2.27273
260.023	4.02202
260.242	3.14818
260.461	2.4415
260.68	1.30993
260.898	3.71195
261.117	1.4003
261.336	0.98956
261.554	3.22611
261.773	3.29186
261.992	0.95239
262.21	3.08153
262.429	3.55252
262.648	6.04569
262.866	7.11241
263.085	5.22156
263.303	4.37343
263.522	7.62449
263.74	7.55365
263.959	12.81331
264.178	6.73328
264.396	5.65537
264.615	3.9611
264.833	9.43574
265.051	8.0991
265.27	9.36141
265.488	9.36994
265.707	5.64578
265.925	8.91398
266.144	4.48197
266.362	5.11184
266.58	4.85994
266.799	4.24161
267.017	5.08086
267.235	4.75567
267.454	3.2221
267.672	1.86522
267.89	3.94907
268.109	4.19234
268.327	4.20422
268.545	0.89477
268.763	3.66327
268.982	1.68728
269.2	4.23197
269.418	2.83127
269.636	2.29601
269.854	4.08144
270.073	3.08269
270.291	1.83465
270.509	1.70862
270.727	3.83023
270.945	6.19384
271.163	6.04612
271.381	1.58128
271.599	2.63141
271.817	4.20224
272.036	1.56921
272.254	3.01474
272.472	2.19615
272.69	2.10567
272.908	2.40199
273.126	3.52629
273.344	4.53583
273.562	1.60755
273.779	2.4264
273.997	3.6819
274.215	3.639
274.433	2.57087
274.651	4.08868
274.869	3.98685
275.087	3.06215
275.305	3.77267
275.523	2.33672
275.74	2.62325
275.958	4.90688
276.176	6.73934
276.394	2.32333
276.612	2.95522
276.829	2.87467
277.047	2.68924
277.265	2.68861
277.483	3.12449
277.7	3.56614
277.918	2.92845
278.136	5.52804
278.353	2.64835
278.571	1.81478
278.789	4.16804
279.006	1.02822
279.224	2.57804
279.442	4.4456
279.659	3.21733
279.877	2.10063
280.094	4.53822
280.312	1.06579
280.529	3.02759
280.747	1.13679
280.964	2.60915
281.182	4.8167
281.399	2.622
281.617	3.25514
281.834	2.22151
282.052	1.68595
282.269	2.92704
282.487	2.34595
282.704	2.09918
282.921	1.97214
283.139	2.92952
283.356	3.60525
283.574	3.53308
283.791	1.65329
284.008	4.42682
284.226	2.73735
284.443	3.02647
284.66	3.76696
284.877	3.01573
285.095	2.0579
285.312	1.4345
285.529	0.85697
285.746	0.7963
285.964	1.80743
286.181	1.30512
286.398	1.78452
286.615	2.48515
286.832	2.3266
287.05	0.75028
287.267	1.67612
287.484	1.75497
287.701	2.4555
287.918	2.31363
288.135	2.37777
288.352	1.07451
288.569	1.43255
288.786	2.26772
289.003	1.68496
289.22	2.74902
289.437	1.5879
289.654	2.42309
289.871	2.54921
290.088	2.56621
290.305	2.05566
290.522	1.76974
290.739	1.88824
290.956	2.74482
291.173	3.18974
291.39	3.08347
291.607	2.11135
291.824	1.97164
292.04	1.4991
292.257	2.87542
292.474	3.08927
292.691	2.18353
292.908	1.28875
293.125	1.93078
293.341	1.57599
293.558	4.81309
293.775	2.76032
293.992	2.90712
294.208	1.65332
294.425	2.46833
294.642	2.86745
294.858	3.8281
295.075	2.09725
295.292	3.34237
295.508	4.01323
295.725	5.00854
295.942	3.97162
296.158	3.76037
296.375	4.74782
296.591	4.41612
296.808	4.79028
297.024	5.46221
297.241	5.76771
297.458	6.03181
297.674	4.59684
297.891	5.9702
298.107	6.13937
298.323	5.48892
298.54	7.2954
298.756	6.13965
298.973	5.67894
299.189	7.71508
299.406	6.58523
299.622	7.68146
299.838	8.05168
300.055	7.64694
300.271	6.37352
300.487	6.76508
300.704	7.12669
300.92	6.51922
301.136	9.62536
301.353	8.58248
301.569	7.97173
301.785	8.28279
302.001	8.59822
302.218	8.47205
302.434	8.87173
302.65	7.50502
302.866	8.08911
303.083	10.39635
303.299	10.56869
303.515	8.69607
303.731	9.38055
303.947	8.00578
304.163	8.82578
304.379	9.28163
304.595	9.44518
304.812	8.67069
305.028	8.75945
305.244	9.08631
305.46	9.77812
305.676	10.14338
305.892	10.63542
306.108	10.10211
306.324	9.37261
306.54	10.95466
306.756	9.92607
306.972	9.71339
307.187	9.82373
307.403	10.69954
307.619	9.32395
307.835	10.54695
308.051	10.73158
308.267	9.22203
308.483	11.1153
308.699	10.44064
308.914	10.28051
309.13	10.25194
309.346	9.38152
309.562	9.70563
309.778	9.47547
309.993	10.88848
310.209	10.88958
310.425	9.91011
310.641	10.77536
310.856	10.3056
311.072	10.11968
311.288	10.84169
311.503	11.21026
311.719	9.78114
311.935	9.97492
312.15	11.40635
312.366	11.38675
312.581	11.4571
312.797	11.20099
313.013	11.79605
313.228	10.60311
313.444	10.7997
313.659	10.37579
313.875	11.05951
314.09	10.7802
314.306	11.87434
314.521	11.41656
314.737	11.49463
314.952	11.09055
315.168	11.25395
315.383	11.25232
315.599	10.60848
315.814	10.96433
316.029	11.58091
316.245	10.4847
316.46	9.59235
316.675	11.87558
316.891	12.50455
317.106	13.46215
317.321	11.26088
317.537	11.56874
317.752	11.78669
317.967	11.85455
318.183	10.431
318.398	10.93652
318.613	11.88061
318.828	12.24505
319.043	11.49244
319.259	10.88435
319.474	11.1829
319.689	12.14779
319.904	9.75808
320.119	12.19448
320.334	11.24071
320.549	11.14879
320.765	12.18881
320.98	11.67688
321.195	11.62981
321.41	11.40069
321.625	11.77901
321.84	12.6151
322.055	12.34067
322.27	10.973
322.485	10.36791
322.7	11.94485
322.915	12.04633
323.13	11.09445
323.345	12.77266
323.56	12.05186
323.775	12.2797
323.989	12.17313
324.204	11.78546
324.419	12.51572
324.634	10.94923
324.849	11.80918
325.064	13.39908
325.279	12.6795
325.493	12.2461
325.708	12.64033
325.923	11.21542
326.138	11.91628
326.352	13.24514
326.567	12.65132
326.782	11.67522
326.997	11.70644
327.211	12.46991
327.426	12.34164
327.641	11.97115
327.855	11.10227
328.07	12.65425
328.285	13.63073
328.499	11.71045
328.714	12.157
328.928	12.20535
329.143	12.07653
329.358	12.97978
329.572	12.76651
329.787	13.05117
330.001	13.97205
330.216	11.00144
330.43	13.73821
330.645	13.01299
330.859	12.92684
331.074	11.1097
331.288	12.09619
331.503	13.5606
331.717	11.375
331.931	12.06291
332.146	12.63584
332.36	13.84755
332.575	12.55436
332.789	12.13732
333.003	12.44077
333.218	12.64373
333.432	11.92048
333.646	13.05885
333.86	13.76686
334.075	13.71687
334.289	11.81281
334.503	11.03144
334.717	12.98565
334.932	12.49835
335.146	12.94489
335.36	11.83835
335.574	13.20825
335.788	13.09616
336.003	13.49724
336.217	13.45312
336.431	12.54058
336.645	12.03942
336.859	11.39147
337.073	12.28635
337.287	12.50912
337.501	11.34708
337.715	12.95192
337.929	12.95797
338.143	12.06115
338.357	12.67863
338.571	12.6589
338.785	13.72608
338.999	12.57655
339.213	12.55426
339.427	12.14617
339.641	13.89296
339.855	12.53218
340.069	12.13899
340.283	13.68495
340.497	14.03887
340.711	13.45019
340.924	12.87284
341.138	12.43407
341.352	12.01512
341.566	13.0465
341.78	11.83506
341.993	12.6298
342.207	12.47063
342.421	13.4137
342.635	12.94078
342.848	12.7379
343.062	11.295
343.276	12.68705
343.49	14.54197
343.703	12.67856
343.917	13.92619
344.131	14.15773
344.344	12.47856
344.558	12.87184
344.771	12.43073
344.985	14.03744
345.199	14.64254
345.412	13.52252
345.626	13.82674
345.839	12.24697
346.053	12.46821
346.266	12.9081
346.48	13.84836
346.693	13.71707
346.907	13.638
347.12	12.73031
347.334	13.26055
347.547	13.6388
347.76	13.19697
347.974	14.10221
348.187	13.42751
348.401	13.3491
348.614	12.50097
348.827	13.18658
349.041	13.55165
349.254	12.03436
349.467	13.04724
349.681	12.73512
349.894	12.79626
350.107	14.37147
350.32	15.03348
350.534	12.59895
350.747	13.50458
350.96	12.99259
351.173	13.02946
351.386	13.31391
351.6	13.09898
351.813	13.42138
352.026	13.43685
352.239	13.06691
352.452	13.16388
352.665	14.43104
352.878	13.38087
353.092	15.28932
353.305	14.25694
353.518	13.80417
353.731	13.08927
353.944	14.44692
354.157	13.60183
354.37	13.53509
354.583	13.07529
354.796	13.07301
355.009	14.67443
355.222	14.12046
355.435	13.97692
355.647	14.86144
355.86	13.51684
356.073	14.09413
356.286	13.8272
356.499	14.70629
356.712	14.64115
356.925	14.47669
357.138	14.78289
357.35	13.70466
357.563	14.05716
357.776	14.38741
357.989	14.45199
358.201	14.84542
358.414	14.69676
358.627	15.22699
358.84	14.34602
359.052	13.73701
359.265	13.93156
359.478	14.9301
359.69	12.8491
359.903	15.17622
360.116	15.2396
360.328	13.65746
360.541	15.05865
360.753	14.26703
360.966	14.35891
361.179	14.57788
361.391	14.76019
361.604	15.22163
361.816	15.71861
362.029	15.67137
362.241	15.20232
362.454	15.22328
362.666	14.55676
362.879	15.25366
363.091	14.73487
363.304	14.58871
363.516	14.70076
363.728	14.20329
363.941	15.14648
364.153	15.01802
364.366	13.68554
364.578	14.2536
364.79	15.09314
365.003	15.08731
365.215	14.61424
365.427	15.45476
365.639	15.64954
365.852	14.99421
366.064	15.81738
366.276	14.83483
366.488	15.08032
366.701	14.86746
366.913	14.75176
367.125	15.05681
367.337	14.59592
367.549	14.81828
367.762	14.90618
367.974	15.01994
368.186	14.9211
368.398	15.80266
368.61	15.35508
368.822	15.57118
369.034	14.9034
369.246	15.76516
369.458	16.79982
369.67	14.55571
369.882	16.14933
370.094	13.94477
370.306	15.95332
370.518	15.11077
370.73	14.95395
370.942	14.90193
371.154	15.26517
371.366	15.19971
371.578	15.78219
371.79	15.27159
372.002	16.0529
372.214	16.83094
372.425	15.46671
372.637	16.49921
372.849	15.77603
373.061	14.18216
373.273	15.8211
373.484	15.8154
373.696	15.92601
373.908	14.18508
374.12	15.9949
374.331	15.93196
374.543	15.0128
374.755	14.94798
374.967	15.37647
375.178	16.14008
375.39	15.30067
375.602	15.61243
375.813	14.70799
376.025	15.04411
376.236	15.80322
376.448	15.88472
376.66	15.67362
376.871	15.64772
377.083	16.14334
377.294	16.73313
377.506	15.57864
377.717	16.81759
377.929	15.99112
378.14	15.61624
378.352	16.20213
378.563	16.44385
378.775	16.81456
378.986	15.42602
379.197	16.14761
379.409	15.37832
379.62	16.30274
379.832	16.03423
380.043	15.82492
380.254	16.24887
380.466	15.23109
380.677	17.66378
380.888	17.31918
381.1	17.7057
381.311	17.66352
381.522	16.26162
381.733	17.83862
381.945	16.20229
382.156	15.91861
382.367	15.82062
382.578	17.76982
382.789	18.05259
383.001	15.63669
383.212	17.29941
383.423	17.28621
383.634	16.87689
383.845	16.62014
384.056	16.05504
384.267	16.28578
384.478	16.44512
384.69	15.70275
384.901	16.76804
385.112	16.43966
385.323	17.52075
385.534	16.70839
385.745	16.67941
385.956	16.56369
386.167	15.98669
386.378	16.84185
386.588	16.03519
386.799	15.9407
387.01	15.59
387.221	17.01276
387.432	16.48909
387.643	17.54191
387.854	16.34754
388.065	16.35749
388.275	16.40542
388.486	16.21908
388.697	16.65421
388.908	16.38034
389.119	17.23344
389.329	17.50246
389.54	16.69199
389.751	16.94243
389.962	17.47008
390.172	16.68136
390.383	16.56181
390.594	16.29482
390.804	16.30953
391.015	16.39308
391.226	16.88165
391.436	17.17115
391.647	17.10364
391.858	17.14228
392.068	15.84265
392.279	16.35048
392.489	17.06923
392.7	17.3051
392.91	16.35246
393.121	16.43376
393.331	17.10044
393.542	17.58738
393.752	17.41747
393.963	16.94653
394.173	17.05945
394.384	17.29032
394.594	16.96024
394.804	16.30191
395.015	16.91707
395.225	17.42017
395.436	16.38912
395.646	17.25264
395.856	16.78665
396.067	16.19925
396.277	17.464
396.487	17.16264
396.697	17.20649
396.908	17.41
397.118	17.31393
397.328	16.94087
397.538	17.43328
397.749	16.59522
397.959	17.53349
398.169	17.11912
398.379	16.24576
398.589	17.29871
398.8	17.10712
399.01	17.21585
399.22	16.84105
399.43	18.17902
399.64	17.01927
399.85	17.16712
400.06	17.20376
400.27	16.69561
400.48	16.99248
400.69	17.62423
400.9	16.86403
401.11	16.52282
401.32	17.53595
401.53	16.73659
401.74	17.87442
401.95	17.2587
402.16	16.73959
402.37	17.51433
402.58	16.84461
402.79	17.38676
403	17.52588
403.209	16.74593
403.419	17.64501
403.629	16.86311
403.839	17.77351
404.049	17.78756
404.258	17.02595
404.468	16.82893
404.678	17.71863
404.888	17.86546
405.097	17.11367
405.307	17.29339
405.517	17.73272
405.727	17.59918
405.936	17.11246
406.146	17.53598
406.356	18.09294
406.565	17.43112
406.775	17.11846
406.984	17.1881
407.194	18.55488
407.404	17.40836
407.613	17.72393
407.823	17.7572
408.032	18.15279
408.242	17.9416
408.451	17.11527
408.661	17.25496
408.87	18.24392
409.08	16.96198
409.289	17.61943
409.499	17.46209
409.708	17.40648
409.918	16.40535
410.127	17.6091
410.336	18.34548
410.546	17.94016
410.755	17.33299
410.964	17.23293
411.174	17.11809
411.383	17.89792
411.592	17.89932
411.802	17.10991
412.011	18.03611
412.22	17.5024
412.429	18.42952
412.639	18.31454
412.848	18.18432
413.057	18.53793
413.266	18.31584
413.475	17.75003
413.685	18.03401
413.894	18.1452
414.103	18.18133
414.312	18.00804
414.521	17.54971
414.73	17.95569
414.939	18.62838
415.148	18.19813
415.357	18.00241
415.566	17.68565
415.776	17.63546
415.985	17.71483
416.194	18.48999
416.403	19.04099
416.611	17.45676
416.82	18.31625
417.029	19.22539
417.238	19.43645
417.447	19.77574
417.656	21.09821
417.865	21.56552
418.074	21.99373
418.283	23.81682
418.492	25.1612
418.7	24.92441
418.909	27.52913
419.118	26.40083
419.327	27.02427
419.536	27.24439
419.744	27.79179
419.953	29.67183
420.162	30.52672
420.371	30.23455
420.579	31.93649
