Data from WindowProjectSample3_Transmission__51__00051.txt Node

Date: Sun May 04 11:24:02 EDT 2025
User: jessi
Spectrometer: SR400872
Trigger mode: 0
Integration Time (sec): 5.000050E-1
Scans to average: 20
Electric dark correction enabled: true
Nonlinearity correction enabled: true
Boxcar width: 0
XAxis mode: Wavelengths
Number of Pixels in Spectrum: 3648
>>>>>Begin Spectral Data<<<<<
184.909	-1286.68753
185.132	-1452.92985
185.355	-1168.65044
185.578	-1044.28453
185.801	1257.91799
186.024	-920.67694
186.247	-4884.59247
186.47	-2037.01222
186.693	-265.58079
186.916	-562.56828
187.139	-787.83808
187.362	-2873.09792
187.585	-706.34405
187.808	-4976.24511
188.031	8961.87787
188.254	-2450.56918
188.476	-3500.83748
188.699	-1086.96748
188.922	710.6671
189.145	-1218.76023
189.368	3093.87164
189.591	-2345.5694
189.813	-1502.50294
190.036	-859.85342
190.259	-1195.30492
190.482	-1576.78044
190.705	-2419.22662
190.927	-701.26031
191.15	-1521.75904
191.373	-1132.27107
191.595	-1305.55028
191.818	-1364.03055
192.041	-657.35678
192.263	-1095.22165
192.486	-630.26046
192.709	-1540.72968
192.931	-3302.7114
193.154	-1167.8885
193.377	-1622.84525
193.599	-3182.70937
193.822	-3496.40426
194.044	-3157.4031
194.267	-1874.14247
194.489	-41.96816
194.712	-964.61975
194.934	-1723.4293
195.157	-619.25502
195.379	-1272.26753
195.602	-838.47312
195.824	-1329.97523
196.047	-2113.28019
196.269	-1098.59908
196.492	-1444.85559
196.714	-1271.37011
196.936	-1234.17689
197.159	-932.96272
197.381	-794.94565
197.604	-593.98602
197.826	-2151.16197
198.048	-1106.95366
198.271	-1640.46186
198.493	-1156.7655
198.715	-973.63111
198.938	-3160.61718
199.16	-4404.92473
199.382	-1242.28458
199.604	-1238.74498
199.827	-1835.54236
200.049	-1536.27282
200.271	-1189.47273
200.493	-1469.52156
200.715	-972.846
200.938	-839.63488
201.16	-963.55827
201.382	-1058.72645
201.604	-1279.25813
201.826	-700.72225
202.048	-822.71634
202.27	-1385.93633
202.492	-1381.03267
202.715	-1866.00574
202.937	-2079.53116
203.159	-1338.74995
203.381	-1559.81739
203.603	-1018.80882
203.825	-5222.66052
204.047	-1611.22916
204.269	-1367.05738
204.491	-1268.87207
204.713	-1588.11765
204.935	-1402.31801
205.156	-2794.1079
205.378	-2773.76656
205.6	-1601.48324
205.822	-1096.51982
206.044	1408.62147
206.266	-1325.77124
206.488	-934.84118
206.71	-1705.19697
206.932	-1803.45471
207.153	-1139.63872
207.375	-1365.46854
207.597	-1078.30647
207.819	-1105.67693
208.041	-1195.63595
208.262	-1534.35459
208.484	-885.88381
208.706	-2291.18109
208.927	-833.49969
209.149	-1445.54098
209.371	-1201.52737
209.593	-1632.5933
209.814	-626.13664
210.036	-933.85955
210.258	-725.0054
210.479	-1052.72196
210.701	-1886.6324
210.922	-1265.43962
211.144	-1007.20236
211.366	-1099.10217
211.587	1358.93049
211.809	-1119.82967
212.03	-6204.02651
212.252	980.36516
212.473	-949.77814
212.695	-17359.48897
212.916	-3524.39901
213.138	-1374.64217
213.359	-973.51751
213.581	-1420.03091
213.802	-933.12577
214.024	-1380.14904
214.245	-11972.36335
214.466	-1058.20699
214.688	-1426.74564
214.909	-1032.26328
215.131	-2700.63991
215.352	-3736.50797
215.573	-1081.42409
215.795	-1908.58586
216.016	-1414.19378
216.237	-3091.26886
216.459	-1455.16592
216.68	-1114.17447
216.901	-1544.63081
217.122	10380.82864
217.344	-972.85614
217.565	-1320.4355
217.786	-1328.72832
218.007	-966.31598
218.228	-1205.61503
218.45	-1079.71395
218.671	-1187.83356
218.892	-1033.29334
219.113	-1577.3193
219.334	-109.16799
219.555	-1617.21537
219.776	-1545.0317
219.997	-1242.21003
220.219	16705.11113
220.44	-1201.91532
220.661	-3391.32094
220.882	-929.81464
221.103	1584.83198
221.324	-2804.13689
221.545	-1170.50683
221.766	-1310.94687
221.987	-1796.47107
222.208	-2011.70346
222.429	-762.84687
222.65	-718.68565
222.87	-1630.56921
223.091	-3499.43455
223.312	3167.11243
223.533	-1209.89329
223.754	-1560.57318
223.975	-2217.21779
224.196	8691.49875
224.417	-8095.37462
224.637	4154.01459
224.858	210.09726
225.079	-1916.03872
225.3	28509.63934
225.521	-1040.32306
225.741	-5165.59879
225.962	6944.57208
226.183	409.12612
226.404	-3659.51704
226.624	2489.72115
226.845	-83398.29964
227.066	-643500.27161
227.286	873.01969
227.507	324.74576
227.728	286.5337
227.948	674.81225
228.169	171.2916
228.389	174.75309
228.61	98.11006
228.831	132.28546
229.051	10.74941
229.272	71.58728
229.492	105.6382
229.713	31.16986
229.933	72.48889
230.154	62.18067
230.374	101.77519
230.595	73.82016
230.815	45.14251
231.036	72.67819
231.256	-8.11727
231.477	129.78124
231.697	77.80108
231.917	84.45564
232.138	117.07853
232.358	240.36806
232.579	194.79069
232.799	34.34435
233.019	192.98759
233.24	235.00622
233.46	84.3869
233.68	118.42442
233.901	82.85959
234.121	58.28851
234.341	25.79183
234.561	-4.6313
234.782	42.16916
235.002	132.37402
235.222	0.01458
235.442	118.33924
235.662	55.53485
235.883	115.60682
236.103	98.41278
236.323	65.11268
236.543	52.33911
236.763	76.43435
236.983	84.01442
237.203	74.66606
237.423	114.66576
237.643	170.29348
237.864	150.03799
238.084	37.13658
238.304	48.49918
238.524	88.17687
238.744	76.21005
238.964	133.74364
239.184	116.21262
239.404	125.4532
239.624	64.33524
239.843	108.6001
240.063	65.45421
240.283	42.26125
240.503	46.22086
240.723	46.12019
240.943	27.33737
241.163	34.91749
241.383	26.14089
241.603	13.97959
241.822	15.47327
242.042	10.65272
242.262	14.25763
242.482	14.91262
242.702	17.3912
242.921	5.21259
243.141	11.49499
243.361	10.18414
243.581	15.15763
243.8	12.54802
244.02	8.39104
244.24	15.49651
244.459	14.27833
244.679	29.59786
244.899	18.40325
245.118	22.66716
245.338	21.29758
245.558	23.37094
245.777	13.81294
245.997	17.21363
246.216	17.87187
246.436	10.40937
246.655	7.37762
246.875	5.61552
247.094	10.31345
247.314	3.91416
247.533	6.1466
247.753	7.18638
247.972	5.78573
248.192	2.2975
248.411	3.29903
248.631	5.75532
248.85	7.08431
249.07	7.13182
249.289	9.9095
249.508	7.27814
249.728	11.58514
249.947	11.78547
250.166	14.61328
250.386	7.53062
250.605	11.54188
250.824	18.81165
251.044	12.94323
251.263	39.55133
251.482	22.94818
251.701	19.96134
251.921	0.30566
252.14	6.29358
252.359	7.69598
252.578	16.46242
252.798	6.11986
253.017	14.28014
253.236	7.29551
253.455	9.69502
253.674	18.40628
253.893	8.91602
254.112	13.03575
254.331	19.28504
254.551	15.37211
254.77	8.82439
254.989	22.76721
255.208	17.55061
255.427	27.63269
255.646	23.24402
255.865	33.7729
256.084	15.15724
256.303	19.14489
256.522	23.74921
256.741	6.34004
256.96	6.49165
257.179	14.22485
257.397	18.03451
257.616	10.18748
257.835	10.20996
258.054	24.63909
258.273	17.61551
258.492	18.02184
258.711	11.06556
258.93	5.18884
259.148	7.77135
259.367	7.23355
259.586	9.25408
259.805	4.21542
260.023	7.72755
260.242	5.84643
260.461	4.5565
260.68	2.3741
260.898	6.55322
261.117	2.52061
261.336	1.64505
261.554	5.56768
261.773	5.74331
261.992	1.56689
262.21	5.43671
262.429	6.45645
262.648	11.29516
262.866	12.63216
263.085	9.27797
263.303	7.88046
263.522	14.34001
263.74	13.80477
263.959	23.61986
264.178	12.74274
264.396	11.13316
264.615	8.2377
264.833	18.29186
265.051	15.22404
265.27	17.92576
265.488	17.82925
265.707	10.92488
265.925	17.43495
266.144	8.58311
266.362	9.41495
266.58	9.61262
266.799	8.10745
267.017	9.77594
267.235	8.66018
267.454	5.80493
267.672	3.38566
267.89	7.25336
268.109	7.49346
268.327	7.39086
268.545	1.79789
268.763	7.01579
268.982	3.19635
269.2	7.52608
269.418	5.21099
269.636	4.37331
269.854	7.36736
270.073	5.48473
270.291	3.31877
270.509	3.0055
270.727	7.56144
270.945	11.55032
271.163	11.80318
271.381	3.08356
271.599	5.23124
271.817	8.23371
272.036	3.00186
272.254	5.71477
272.472	4.03223
272.69	3.91107
272.908	4.33124
273.126	6.53374
273.344	8.42678
273.562	2.89827
273.779	4.56531
273.997	7.0402
274.215	6.72618
274.433	4.85016
274.651	7.32519
274.869	7.32986
275.087	4.54106
275.305	6.91226
275.523	4.66538
275.74	4.869
275.958	9.05091
276.176	12.82362
276.394	4.26049
276.612	5.4314
276.829	5.49531
277.047	4.80602
277.265	4.99454
277.483	5.75851
277.7	6.64736
277.918	5.57345
278.136	10.31987
278.353	4.91138
278.571	2.98322
278.789	7.58381
279.006	2.01775
279.224	4.76771
279.442	8.30317
279.659	6.3899
279.877	4.00423
280.094	8.42277
280.312	2.01754
280.529	5.71721
280.747	2.10402
280.964	4.84412
281.182	9.09494
281.399	4.84677
281.617	5.93486
281.834	4.33869
282.052	3.29056
282.269	5.32394
282.487	4.27932
282.704	3.77365
282.921	3.65401
283.139	5.58411
283.356	6.90983
283.574	6.52169
283.791	3.1692
284.008	8.61478
284.226	5.08515
284.443	5.60656
284.66	7.03956
284.877	6.18821
285.095	3.97981
285.312	2.8646
285.529	1.7626
285.746	1.49211
285.964	3.40835
286.181	2.35568
286.398	3.20427
286.615	4.59606
286.832	4.23432
287.05	1.14305
287.267	3.09141
287.484	3.18828
287.701	4.38369
287.918	4.19125
288.135	4.5043
288.352	1.98172
288.569	2.63489
288.786	4.34228
289.003	3.1706
289.22	5.00608
289.437	2.93842
289.654	4.78499
289.871	4.86267
290.088	4.64896
290.305	4.02157
290.522	3.13765
290.739	3.33321
290.956	5.05507
291.173	5.80539
291.39	5.56725
291.607	3.77537
291.824	3.2348
292.04	2.33027
292.257	4.87144
292.474	5.31254
292.691	3.71856
292.908	1.77791
293.125	3.07415
293.341	1.99862
293.558	8.09664
293.775	3.7925
293.992	4.06926
294.208	1.52986
294.425	2.60042
294.642	3.35374
294.858	4.74806
295.075	1.39729
295.292	3.42936
295.508	4.42256
295.725	5.97173
295.942	3.28918
296.158	2.67471
296.375	3.93489
296.591	3.31857
296.808	3.3162
297.024	3.94686
297.241	4.23102
297.458	4.53942
297.674	1.30149
297.891	3.91125
298.107	3.46469
298.323	2.78056
298.54	5.39401
298.756	3.3294
298.973	2.0071
299.189	5.93883
299.406	3.59651
299.622	5.80543
299.838	6.17421
300.055	5.62577
300.271	2.79097
300.487	3.37933
300.704	3.76677
300.92	2.91248
301.136	8.25771
301.353	6.7082
301.569	4.99043
301.785	5.45689
302.001	6.02684
302.218	5.662
302.434	6.06974
302.65	3.3781
302.866	4.40177
303.083	8.79932
303.299	8.73663
303.515	5.55049
303.731	6.00064
303.947	3.69451
304.163	4.80123
304.379	5.70592
304.595	6.32424
304.812	4.68998
305.028	4.45235
305.244	5.0951
305.46	6.76863
305.676	6.86841
305.892	7.98645
306.108	6.7665
306.324	5.37581
306.54	8.60887
306.756	6.62111
306.972	6.50759
307.187	5.86687
307.403	8.13999
307.619	5.15617
307.835	7.53856
308.051	7.82778
308.267	4.69451
308.483	7.92646
308.699	6.89672
308.914	6.04915
309.13	6.25366
309.346	4.0228
309.562	4.79918
309.778	4.1718
309.993	6.89988
310.209	6.44865
310.425	4.61512
310.641	5.96087
310.856	4.99635
311.072	4.87571
311.288	6.18127
311.503	6.57161
311.719	3.98152
311.935	4.09838
312.15	6.9305
312.366	6.60932
312.581	7.08394
312.797	6.45761
313.013	7.52359
313.228	5.49182
313.444	6.17632
313.659	5.04097
313.875	7.15133
314.09	6.21591
314.306	8.36226
314.521	7.56599
314.737	7.49412
314.952	6.76596
315.168	6.91878
315.383	7.0318
315.599	6.07682
315.814	6.50685
316.029	7.84694
316.245	5.09666
316.46	3.93899
316.675	8.37468
316.891	9.48107
317.106	10.90036
317.321	7.34518
317.537	7.43325
317.752	7.79374
317.967	8.25358
318.183	5.43466
318.398	6.10909
318.613	8.25337
318.828	8.89779
319.043	7.82855
319.259	6.40054
319.474	7.05164
319.689	8.39236
319.904	4.14822
320.119	8.44122
320.334	7.16651
320.549	6.53914
320.765	8.56444
320.98	7.41056
321.195	8.04732
321.41	6.86529
321.625	8.13979
321.84	9.67771
322.055	9.4474
322.27	5.73814
322.485	5.34543
322.7	7.46476
322.915	8.57914
323.13	6.12977
323.345	9.48325
323.56	8.29867
323.775	8.12112
323.989	7.81882
324.204	7.34364
324.419	8.40759
324.634	5.32347
324.849	7.20925
325.064	10.31106
325.279	8.78481
325.493	7.83097
325.708	8.63755
325.923	6.05748
326.138	6.68029
326.352	9.66255
326.567	8.4307
326.782	6.76762
326.997	6.5757
327.211	8.37033
327.426	7.82827
327.641	6.96862
327.855	5.01205
328.07	8.37565
328.285	9.96224
328.499	6.91225
328.714	7.76501
328.928	8.2381
329.143	7.56097
329.358	9.34083
329.572	8.78827
329.787	9.75549
330.001	11.44298
330.216	5.44242
330.43	10.53824
330.645	9.69935
330.859	8.96455
331.074	6.09478
331.288	7.37171
331.503	10.31707
331.717	5.73938
331.931	7.61092
332.146	8.14226
332.36	11.01533
332.575	8.49334
332.789	7.97369
333.003	7.77121
333.218	8.76915
333.432	6.97537
333.646	9.08575
333.86	10.61534
334.075	10.59389
334.289	6.92193
334.503	5.89614
334.717	8.93588
334.932	8.32992
335.146	8.778
335.36	6.75985
335.574	8.49348
335.788	8.12377
336.003	9.11469
336.217	9.30101
336.431	8.31297
336.645	7.36572
336.859	6.41025
337.073	8.06441
337.287	8.33083
337.501	6.47663
337.715	8.93625
337.929	8.92754
338.143	6.48212
338.357	7.89265
338.571	7.33276
338.785	9.2459
338.999	7.16802
339.213	7.28933
339.427	6.29197
339.641	9.92095
339.855	7.30893
340.069	6.88507
340.283	9.35195
340.497	10.26929
340.711	9.0524
340.924	8.11052
341.138	6.78509
341.352	6.37928
341.566	8.42888
341.78	5.99541
341.993	7.40358
342.207	7.16834
342.421	8.6295
342.635	8.17312
342.848	7.52701
343.062	4.8676
343.276	7.5499
343.49	11.15609
343.703	7.43766
343.917	9.55334
344.131	9.89786
344.344	7.27982
344.558	7.67886
344.771	6.69163
344.985	9.96154
345.199	10.89521
345.412	8.7856
345.626	8.89328
345.839	6.04821
346.053	6.89914
346.266	7.02905
346.48	9.16737
346.693	8.83786
346.907	9.07302
347.12	7.19287
347.334	8.40799
347.547	9.0316
347.76	8.07679
347.974	9.88927
348.187	8.70277
348.401	8.19125
348.614	7.05828
348.827	8.13114
349.041	9.21476
349.254	6.05821
349.467	8.10616
349.681	7.24294
349.894	7.4402
350.107	10.08571
350.32	11.50201
350.534	6.47363
350.747	8.19781
350.96	7.35196
351.173	7.6125
351.386	7.8361
351.6	7.84557
351.813	7.88899
352.026	8.33239
352.239	7.13293
352.452	8.24474
352.665	10.27227
352.878	8.20978
353.092	11.7003
353.305	9.58488
353.518	8.57832
353.731	7.31205
353.944	9.73933
354.157	8.13437
354.37	7.99521
354.583	7.0699
354.796	6.96546
355.009	10.18065
355.222	8.94235
355.435	8.73944
355.647	10.46357
355.86	7.86756
356.073	8.73835
356.286	8.22081
356.499	10.20529
356.712	10.05674
356.925	9.48118
357.138	10.38365
357.35	7.69011
357.563	8.46175
357.776	9.25325
357.989	9.19047
358.201	9.89079
358.414	9.61745
358.627	10.45435
358.84	8.74465
359.052	7.51968
359.265	7.88158
359.478	10.26985
359.69	5.91074
359.903	10.50974
360.116	10.70592
360.328	7.37577
360.541	10.27133
360.753	8.61611
360.966	9.07007
361.179	9.21578
361.391	9.04429
361.604	8.67248
361.816	9.04882
362.029	9.11139
362.241	8.59972
362.454	9.18922
362.666	8.52319
362.879	10.04083
363.091	9.10462
363.304	8.75612
363.516	8.97747
363.728	8.06677
363.941	9.89386
364.153	9.60971
364.366	6.91754
364.578	8.13723
364.79	9.95401
365.003	9.53811
365.215	8.84508
365.427	10.08062
365.639	10.74034
365.852	9.78976
366.064	11.40057
366.276	9.06896
366.488	9.78832
366.701	9.21371
366.913	9.19193
367.125	9.46258
367.337	8.64244
367.549	9.01344
367.762	9.48966
367.974	9.52821
368.186	9.25338
368.398	10.58336
368.61	10.13246
368.822	10.51013
369.034	9.22253
369.246	10.53916
369.458	12.82274
369.67	8.65651
369.882	12.13551
370.094	7.26357
370.306	11.42081
370.518	9.16651
370.73	9.44675
370.942	9.22982
371.154	9.75527
371.366	9.60531
371.578	10.76677
371.79	9.69396
372.002	11.47078
372.214	12.64417
372.425	10.17971
372.637	12.01452
372.849	10.65975
373.061	7.5697
373.273	10.7391
373.484	10.85817
373.696	11.12619
373.908	7.51842
374.12	11.50734
374.331	10.79386
374.543	9.34814
374.755	9.23259
374.967	10.34011
375.178	11.59877
375.39	10.1543
375.602	10.74178
375.813	8.76565
376.025	9.40721
376.236	10.75061
376.448	11.03973
376.66	10.60304
376.871	10.4878
377.083	11.86826
377.294	12.87199
377.506	10.33743
377.717	12.65923
377.929	11.17386
378.14	10.5743
378.352	11.49821
378.563	11.74165
378.775	12.63946
378.986	9.99944
379.197	11.21319
379.409	10.23057
379.62	11.80696
379.832	11.33243
380.043	10.98128
380.254	11.61759
380.466	9.7079
380.677	14.57538
380.888	13.58362
381.1	14.63674
381.311	14.67398
381.522	11.64702
381.733	14.74382
381.945	11.35649
382.156	11.22728
382.367	10.86309
382.578	14.80217
382.789	15.13187
383.001	10.69603
383.212	13.95951
383.423	13.81761
383.634	13.1095
383.845	12.80147
384.056	11.43878
384.267	11.90415
384.478	12.22098
384.69	10.6995
384.901	12.62409
385.112	12.51716
385.323	14.44162
385.534	12.45814
385.745	12.59602
385.956	12.73403
386.167	11.28757
386.378	13.08189
386.588	11.4437
386.799	11.23659
387.01	10.61834
387.221	13.47927
387.432	12.57501
387.643	14.58285
387.854	12.14412
388.065	12.18433
388.275	12.32117
388.486	12.07321
388.697	12.57962
388.908	12.13856
389.119	13.9759
389.329	14.56197
389.54	12.72807
389.751	13.28702
389.962	14.54864
390.172	13.17435
390.383	12.5791
390.594	12.16907
390.804	12.415
391.015	12.57041
391.226	13.46968
391.436	14.19439
391.647	13.64568
391.858	14.14118
392.068	11.70132
392.279	12.03309
392.489	13.86808
392.7	14.52253
392.91	12.52334
393.121	12.42296
393.331	13.95731
393.542	14.80989
393.752	14.19655
393.963	13.92441
394.173	14.02236
394.384	14.52227
394.594	13.7111
394.804	12.48465
395.015	14.05495
395.225	14.6452
395.436	12.59033
395.646	14.08364
395.856	13.25461
396.067	12.02624
396.277	14.75182
396.487	14.35079
396.697	14.03933
396.908	14.93844
397.118	14.61362
397.328	14.03233
397.538	15.20227
397.749	13.41329
397.959	15.13704
398.169	14.54229
398.379	12.58419
398.589	14.73268
398.8	14.46325
399.01	14.63312
399.22	13.80806
399.43	16.63064
399.64	14.24844
399.85	14.79454
400.06	14.44155
400.27	13.51129
400.48	14.33351
400.69	15.6174
400.9	13.83048
401.11	13.22099
401.32	15.49959
401.53	13.87677
401.74	16.39762
401.95	14.93988
402.16	14.01686
402.37	15.34475
402.58	14.31842
402.79	15.29212
403	15.71424
403.209	14.22254
403.419	16.03408
403.629	14.37997
403.839	16.09746
404.049	16.07067
404.258	14.55227
404.468	14.03815
404.678	15.98916
404.888	16.30122
405.097	14.8048
405.307	15.20666
405.517	15.76557
405.727	15.7248
405.936	15.01656
406.146	15.29053
406.356	16.78896
406.565	15.08392
406.775	14.82374
406.984	14.74205
407.194	17.37089
407.404	15.30172
407.613	15.70918
407.823	16.07734
408.032	16.784
408.242	16.33303
408.451	14.80321
408.661	15.2725
408.87	17.42076
409.08	15.00627
409.289	16.0382
409.499	16.0338
409.708	15.80591
409.918	13.69057
410.127	15.85194
410.336	17.37747
410.546	16.41075
410.755	15.42638
410.964	15.32258
411.174	14.91775
411.383	16.45235
411.592	16.04756
411.802	14.7589
412.011	16.78695
412.22	15.75885
412.429	17.53509
412.639	17.40798
412.848	17.13219
413.057	17.78745
413.266	17.17514
413.475	16.23202
413.685	16.71385
413.894	17.15467
414.103	17.26901
414.312	17.09171
414.521	16.23603
414.73	16.6958
414.939	18.29264
415.148	17.13303
415.357	16.7033
415.566	16.32842
415.776	16.14413
415.985	16.18206
416.194	17.48795
416.403	18.58826
416.611	15.62502
416.82	16.30725
417.029	17.03711
417.238	16.50006
417.447	16.2744
417.656	16.73305
417.865	16.38242
418.074	16.89772
418.283	17.12306
418.492	18.18528
418.7	17.84408
418.909	18.8488
419.118	17.35608
419.327	17.72284
419.536	17.57619
419.744	16.94645
419.953	18.4172
420.162	18.33164
420.371	17.00724
420.579	16.84708
420.788	17.96739
420.997	18.06268
421.205	17.80132
421.414	17.53689
421.623	17.50608
421.831	17.1104
422.04	17.95388
