Data from WindowProjectSample2_Transmission__1__00006.txt Node

Date: Sat May 03 22:21:19 EDT 2025
User: jessi
Spectrometer: SR400872
Trigger mode: 0
Integration Time (sec): 5.000010E-1
Scans to average: 10
Electric dark correction enabled: true
Nonlinearity correction enabled: true
Boxcar width: 0
XAxis mode: Wavelengths
Number of Pixels in Spectrum: 3648
>>>>>Begin Spectral Data<<<<<
184.909	-6514.64634
185.132	7533.79173
185.355	18769.46792
185.578	8799.63799
185.801	-1008.28211
186.024	-2029.74206
186.247	-4268.75739
186.47	-2523.86511
186.693	-247.17348
186.916	-149.39716
187.139	-4400.13243
187.362	-13923.70122
187.585	2032.81015
187.808	-3704.78781
188.031	187.97936
188.254	2992.83268
188.476	-3608.18829
188.699	-36994.54258
188.922	3074.59003
189.145	-7367.04807
189.368	1090.98286
189.591	1328.93813
189.813	1358.97234
190.036	-3634.48012
190.259	1960.44788
190.482	9852.39744
190.705	3300.90075
190.927	12118.74808
191.15	5870.49491
191.373	1627.51275
191.595	4962.52778
191.818	3080.63671
192.041	517.67263
192.263	2665.10775
192.486	-1708.40768
192.709	-11236.38256
192.931	5887.68435
193.154	-15184.83976
193.377	5625.12828
193.599	11440.87595
193.822	-1413.37711
194.044	1001.07935
194.267	1264.62208
194.489	65.68733
194.712	-6270.99847
194.934	4634.82265
195.157	-3257.86696
195.379	916.5457
195.602	1705.27639
195.824	10221.586
196.047	4464.5096
196.269	-10283.74647
196.492	-11212.34355
196.714	-4282.7901
196.936	-4335.52874
197.159	5981.58231
197.381	-722.33337
197.604	2204.08382
197.826	-14536.32195
198.048	3607.11943
198.271	2104.81229
198.493	1768.25243
198.715	2508.29095
198.938	-2948.8614
199.16	2322.5995
199.382	3321.24669
199.604	3841.90269
199.827	-1341.20411
200.049	-2151.65629
200.271	3586.46219
200.493	-3231.08811
200.715	8263.55668
200.938	3282.14719
201.16	-6441.2933
201.382	-150165.34438
201.604	-8146.31373
201.826	2302.76361
202.048	23282.0055
202.27	17635.32018
202.492	4861.60654
202.715	-5915.19284
202.937	-5957.12011
203.159	-44014.52373
203.381	2222.49597
203.603	4137.04604
203.825	-1612.26804
204.047	4559.15095
204.269	12393.91464
204.491	1574.382
204.713	8987.60135
204.935	6380.41204
205.156	-9167.76179
205.378	1025.36576
205.6	2961.91013
205.822	5109.30306
206.044	1646.15947
206.266	4817.56737
206.488	2505.13558
206.71	14957.7657
206.932	-11431.94719
207.153	-4447.38509
207.375	5713.6214
207.597	8923.73632
207.819	2900.30839
208.041	27450.09533
208.262	-1403.96701
208.484	-5049.59595
208.706	1123.76826
208.927	4226.67555
209.149	2255.63688
209.371	4340.00745
209.593	362.87837
209.814	3279.80965
210.036	2746.22284
210.258	1271.25218
210.479	840.57969
210.701	1439.33123
210.922	-9161.8867
211.144	3611.93469
211.366	1753.7599
211.587	1591.40513
211.809	8670.96772
212.03	3317.27391
212.252	2850.38207
212.473	6262.33027
212.695	1614.90183
212.916	3915.34756
213.138	1328.21881
213.359	-4617.12422
213.581	1737.42804
213.802	1230.79638
214.024	-11156.39661
214.245	-4176.23154
214.466	1078.56605
214.688	2753.88644
214.909	3505.65758
215.131	-10921.13087
215.352	2246.53467
215.573	14408.72269
215.795	2015.14626
216.016	3547.8946
216.237	-1072.16406
216.459	2529.12132
216.68	-16189.4697
216.901	3287.26729
217.122	-7970.2153
217.344	-2013.31071
217.565	-58779.06441
217.786	-103809.98361
218.007	548.68873
218.228	676.36689
218.45	16063.15997
218.671	518.72923
218.892	1667.88899
219.113	1282.07957
219.334	-1117.20493
219.555	4337.88176
219.776	6167.8384
219.997	5029.11425
220.219	4924.07835
220.44	1282.34798
220.661	-10769.89978
220.882	5613.16335
221.103	-10967.0078
221.324	1497.06989
221.545	3019.29075
221.766	2358.56951
221.987	1724.6434
222.208	657.07569
222.429	1637.58922
222.65	274.37023
222.87	859.80243
223.091	2788.37417
223.312	2027.37944
223.533	1035.58022
223.754	7195.64469
223.975	6475.8058
224.196	1068.1551
224.417	-23091.42088
224.637	668.66326
224.858	82.38702
225.079	9064.78404
225.3	1849.73492
225.521	2889.53113
225.741	731.85312
225.962	670.89333
226.183	318.10609
226.404	1142.11383
226.624	1297.61954
226.845	625.37434
227.066	643.14078
227.286	328.22666
227.507	180.77943
227.728	176.3605
227.948	281.2713
228.169	97.78577
228.389	89.91954
228.61	51.76689
228.831	68.87442
229.051	6.7088
229.272	41.67416
229.492	61.53798
229.713	18.20785
229.933	45.14032
230.154	38.68754
230.374	63.43034
230.595	44.14922
230.815	30.57194
231.036	50.75836
231.256	-7.72431
231.477	84.35381
231.697	52.47165
231.917	51.52515
232.138	74.50346
232.358	150.70305
232.579	128.14701
232.799	25.04047
233.019	117.80508
233.24	143.93218
233.46	54.02965
233.68	81.68807
233.901	53.95149
234.121	37.79718
234.341	11.14934
234.561	-3.80433
234.782	27.84338
235.002	87.4464
235.222	-1.47025
235.442	73.22863
235.662	38.71175
235.883	76.2575
236.103	64.90985
236.323	56.3006
236.543	36.31779
236.763	52.81543
236.983	54.30055
237.203	58.33962
237.423	81.28215
237.643	115.92471
237.864	95.22772
238.084	27.01929
238.304	36.128
238.524	63.08819
238.744	51.98133
238.964	87.64197
239.184	75.53571
239.404	82.87573
239.624	40.11234
239.843	66.58186
240.063	44.45438
240.283	28.94634
240.503	32.53862
240.723	29.94077
240.943	17.52836
241.163	23.25728
241.383	15.78717
241.603	9.20669
241.822	10.22912
242.042	8.18443
242.262	9.18545
242.482	11.03376
242.702	13.36219
242.921	4.54602
243.141	8.29211
243.361	7.95939
243.581	11.93592
243.8	10.18967
244.02	6.27827
244.24	12.53369
244.459	12.06213
244.679	22.88432
244.899	15.1875
245.118	19.1357
245.338	15.09947
245.558	17.78848
245.777	9.39207
245.997	11.97556
246.216	13.01976
246.436	7.72484
246.655	5.45982
246.875	4.00918
247.094	7.44198
247.314	2.76632
247.533	4.28094
247.753	5.28694
247.972	4.6962
248.192	1.81898
248.411	2.70696
248.631	4.74088
248.85	6.11232
249.07	5.41438
249.289	7.98951
249.508	6.19844
249.728	9.64515
249.947	10.28161
250.166	10.64185
250.386	6.8118
250.605	9.21919
250.824	14.65622
251.044	10.75814
251.263	29.34765
251.482	17.79572
251.701	14.68142
251.921	0.8468
252.14	4.62789
252.359	5.43034
252.578	12.70767
252.798	4.39699
253.017	10.92558
253.236	5.29678
253.455	7.25264
253.674	15.20663
253.893	7.04713
254.112	10.53098
254.331	14.74216
254.551	13.08167
254.77	5.63996
254.989	17.49792
255.208	13.33322
255.427	18.09646
255.646	16.46408
255.865	26.34995
256.084	10.24078
256.303	13.37563
256.522	17.67198
256.741	5.45155
256.96	3.68925
257.179	10.35617
257.397	14.28473
257.616	6.80781
257.835	8.27073
258.054	19.12229
258.273	11.95527
258.492	13.35762
258.711	7.96933
258.93	3.26209
259.148	5.60645
259.367	5.39275
259.586	6.59534
259.805	2.96148
260.023	5.92209
260.242	4.66236
260.461	3.35632
260.68	1.78018
260.898	5.36332
261.117	1.8858
261.336	1.04856
261.554	4.46532
261.773	5.07321
261.992	1.02176
262.21	4.60854
262.429	5.59702
262.648	8.80459
262.866	10.60679
263.085	6.88011
263.303	6.5248
263.522	11.01937
263.74	11.55325
263.959	19.08052
264.178	9.30751
264.396	8.5053
264.615	6.46958
264.833	14.16912
265.051	12.65536
265.27	12.29519
265.488	13.77646
265.707	8.51399
265.925	13.89615
266.144	6.13357
266.362	7.28976
266.58	7.16033
266.799	6.02047
267.017	6.86908
267.235	6.51898
267.454	4.09033
267.672	2.46518
267.89	5.27304
268.109	5.7162
268.327	5.58479
268.545	1.60395
268.763	5.22063
268.982	2.27421
269.2	6.57095
269.418	3.79924
269.636	3.46486
269.854	5.50954
270.073	4.16541
270.291	2.23627
270.509	2.15075
270.727	5.75918
270.945	9.08426
271.163	8.81583
271.381	2.1033
271.599	3.71746
271.817	6.48737
272.036	2.22973
272.254	3.8599
272.472	3.20156
272.69	3.12576
272.908	3.44955
273.126	5.21915
273.344	6.89145
273.562	2.51253
273.779	3.20067
273.997	5.10815
274.215	5.4633
274.433	4.1594
274.651	5.90616
274.869	6.27638
275.087	3.97658
275.305	5.61344
275.523	3.24562
275.74	3.86578
275.958	6.53327
276.176	10.39355
276.394	3.28032
276.612	4.36357
276.829	4.27298
277.047	3.76618
277.265	3.70904
277.483	4.77771
277.7	5.85209
277.918	4.63871
278.136	7.65323
278.353	3.7807
278.571	2.29053
278.789	5.94993
279.006	1.36949
279.224	4.0194
279.442	6.28537
279.659	4.52829
279.877	2.75465
280.094	6.53728
280.312	1.18552
280.529	4.3207
280.747	1.40677
280.964	3.41423
281.182	7.32233
281.399	3.60891
281.617	4.47456
281.834	3.22014
282.052	3.02407
282.269	4.07388
282.487	3.03462
282.704	2.73425
282.921	3.07043
283.139	4.24256
283.356	5.00731
283.574	4.76328
283.791	2.22401
284.008	6.7325
284.226	3.70055
284.443	4.16048
284.66	5.598
284.877	4.42299
285.095	2.76237
285.312	2.35953
285.529	1.34056
285.746	1.1779
285.964	2.63926
286.181	1.6587
286.398	2.6389
286.615	3.38374
286.832	3.1599
287.05	0.96431
287.267	2.37508
287.484	2.26705
287.701	3.38811
287.918	3.52922
288.135	3.46002
288.352	1.55105
288.569	1.99871
288.786	3.13765
289.003	2.45456
289.22	3.59243
289.437	2.22014
289.654	3.65925
289.871	3.58198
290.088	3.70045
290.305	2.67101
290.522	2.39131
290.739	2.54795
290.956	4.10029
291.173	4.71894
291.39	4.39322
291.607	3.0643
291.824	2.4781
292.04	1.6919
292.257	3.59578
292.474	4.23205
292.691	2.61284
292.908	1.01922
293.125	2.38161
293.341	1.55401
293.558	6.4469
293.775	2.46946
293.992	2.84481
294.208	1.05917
294.425	1.66228
294.642	2.52172
294.858	3.78269
295.075	0.95869
295.292	2.52352
295.508	2.96629
295.725	4.54684
295.942	2.29124
296.158	1.68948
296.375	2.51232
296.591	2.11534
296.808	2.10614
297.024	2.36813
297.241	2.7546
297.458	2.85429
297.674	0.2341
297.891	2.42754
298.107	1.75662
298.323	1.34548
298.54	3.40182
298.756	1.79012
298.973	0.97499
299.189	3.76816
299.406	1.59329
299.622	3.6882
299.838	3.65188
300.055	3.13252
300.271	0.80593
300.487	1.28895
300.704	1.52741
300.92	1.09684
301.136	4.88801
301.353	3.61041
301.569	2.42339
301.785	2.84379
302.001	3.37951
302.218	3.13911
302.434	3.05341
302.65	0.89853
302.866	2.03087
303.083	4.83864
303.299	4.67255
303.515	2.33146
303.731	2.852
303.947	0.83758
304.163	1.73752
304.379	2.67978
304.595	3.18855
304.812	1.8566
305.028	1.64961
305.244	2.25996
305.46	3.50818
305.676	3.37118
305.892	4.23264
306.108	3.03316
306.324	2.21031
306.54	4.63406
306.756	3.29973
306.972	2.98513
307.187	2.45663
307.403	4.49297
307.619	2.08129
307.835	3.73385
308.051	4.30381
308.267	1.34115
308.483	3.61089
308.699	2.88565
308.914	2.53819
309.13	2.45763
309.346	0.74084
309.562	1.42238
309.778	0.86527
309.993	2.9793
310.209	2.47773
310.425	1.24777
310.641	2.0923
310.856	1.37588
311.072	1.29382
311.288	2.45055
311.503	2.5359
311.719	0.73689
311.935	0.43114
312.15	2.74197
312.366	2.49626
312.581	3.08025
312.797	2.6347
313.013	3.17691
313.228	1.85979
313.444	2.43224
313.659	1.69075
313.875	2.74974
314.09	2.1735
314.306	4.07588
314.521	3.33893
314.737	3.06501
314.952	2.76398
315.168	2.30613
315.383	3.15236
315.599	2.24118
315.814	2.3896
316.029	3.68891
316.245	1.32333
316.46	0.73851
316.675	3.99415
316.891	4.84127
317.106	5.81955
317.321	3.12818
317.537	3.12069
317.752	3.44424
317.967	3.60047
318.183	1.83144
318.398	2.17911
318.613	3.73954
318.828	3.93189
319.043	3.6325
319.259	2.19793
319.474	3.15992
319.689	3.92981
319.904	0.8772
320.119	3.62514
320.334	2.80516
320.549	2.36286
320.765	3.83407
320.98	2.93492
321.195	3.5267
321.41	2.49875
321.625	3.66217
321.84	4.61363
322.055	4.42308
322.27	2.23089
322.485	1.58995
322.7	3.02117
322.915	3.74981
323.13	1.77379
323.345	4.38759
323.56	3.10559
323.775	3.34645
323.989	3.23406
324.204	2.74107
324.419	3.82124
324.634	1.14822
324.849	2.37611
325.064	5.09546
325.279	3.59804
325.493	3.35122
325.708	3.88823
325.923	1.72884
326.138	2.09366
326.352	4.34866
326.567	3.55304
326.782	2.15706
326.997	1.87752
327.211	3.45207
327.426	2.98319
327.641	2.33274
327.855	1.01446
328.07	3.18158
328.285	4.64378
328.499	2.16557
328.714	3.08133
328.928	3.50227
329.143	2.67163
329.358	4.08618
329.572	3.73515
329.787	4.32358
330.001	5.33471
330.216	1.16819
330.43	4.73434
330.645	4.50243
330.859	3.77797
331.074	2.10495
331.288	2.72445
331.503	4.51785
331.717	1.80554
331.931	2.70211
332.146	3.09459
332.36	4.91952
332.575	3.27566
332.789	2.9823
333.003	2.44226
333.218	3.2942
333.432	2.15423
333.646	3.71855
333.86	4.64144
334.075	4.5604
334.289	2.28672
334.503	1.66078
334.717	3.40544
334.932	3.28798
335.146	4.12094
335.36	2.36086
335.574	3.42337
335.788	3.78381
336.003	4.3458
336.217	3.69783
336.431	3.3768
336.645	2.36448
336.859	1.52729
337.073	2.55669
337.287	2.78831
337.501	1.70055
337.715	2.8173
337.929	3.2648
338.143	1.44509
338.357	2.53494
338.571	1.93373
338.785	3.2387
338.999	2.12918
339.213	2.25849
339.427	1.17284
339.641	4.21915
339.855	2.61064
340.069	2.2161
340.283	3.82201
340.497	4.62226
340.711	3.41974
340.924	2.71426
341.138	1.55816
341.352	1.23349
341.566	2.76922
341.78	0.87028
341.993	2.05295
342.207	1.69641
342.421	3.00276
342.635	3.13918
342.848	2.00783
343.062	0.72762
343.276	2.11113
343.49	4.99607
343.703	1.84014
343.917	3.59703
344.131	3.87323
344.344	1.97315
344.558	2.18826
344.771	1.59842
344.985	3.92718
345.199	4.39066
345.412	2.92349
345.626	3.03175
345.839	1.02572
346.053	1.60547
346.266	1.71983
346.48	3.35969
346.693	3.07359
346.907	3.20909
347.12	1.80752
347.334	2.86707
347.547	2.98841
347.76	2.41986
347.974	3.99881
348.187	2.95111
348.401	2.28897
348.614	2.0251
348.827	2.41675
349.041	3.41031
349.254	0.67938
349.467	2.48619
349.681	1.64077
349.894	1.94086
350.107	3.86555
350.32	4.41758
350.534	1.19365
350.747	2.24175
350.96	1.75256
351.173	1.99832
351.386	2.16603
351.6	2.03334
351.813	2.10141
352.026	2.49722
352.239	1.30986
352.452	2.33673
352.665	3.44694
352.878	2.33338
353.092	4.71638
353.305	3.14986
353.518	2.6292
353.731	1.53891
353.944	3.52093
354.157	1.97839
354.37	1.80547
354.583	1.61864
354.796	1.0931
355.009	3.70345
355.222	2.53787
355.435	2.63146
355.647	3.71678
355.86	1.62439
356.073	2.3902
356.286	2.02084
356.499	3.18015
356.712	2.9323
356.925	2.77898
357.138	3.40051
357.35	1.54512
357.563	1.98441
357.776	2.51732
357.989	2.30792
358.201	2.94732
358.414	2.76266
358.627	3.64174
358.84	2.10356
359.052	1.44199
359.265	1.48437
359.478	3.41228
359.69	0.08244
359.903	3.18636
360.116	3.1463
360.328	0.76992
360.541	3.03292
360.753	1.55919
360.966	1.83209
361.179	2.04029
361.391	1.91839
361.604	1.47252
361.816	1.83351
362.029	1.64123
362.241	1.54772
362.454	1.82717
362.666	1.42713
362.879	2.40321
363.091	2.11177
363.304	1.55471
363.516	2.16903
363.728	1.22602
363.941	2.71138
364.153	2.0998
364.366	0.44524
364.578	1.36519
364.79	2.74855
365.003	2.27003
365.215	1.81042
365.427	2.64065
365.639	3.40448
365.852	2.4365
366.064	3.83257
366.276	1.86971
366.488	2.66219
366.701	2.00317
366.913	2.08445
367.125	1.80697
367.337	1.71257
367.549	1.7304
367.762	2.36419
367.974	2.21983
368.186	1.72208
368.398	3.20766
368.61	2.9167
368.822	3.04917
369.034	2.34865
369.246	2.87136
369.458	4.5729
369.67	1.3637
369.882	3.93424
370.094	0.46901
370.306	3.64172
370.518	1.91517
370.73	1.79949
370.942	1.60419
371.154	2.14337
371.366	1.84456
371.578	2.5751
371.79	1.62189
372.002	3.27391
372.214	3.97449
372.425	2.48142
372.637	3.57514
372.849	2.60179
373.061	0.5064
373.273	2.70853
373.484	2.6263
373.696	3.03006
373.908	0.38928
374.12	3.15646
374.331	2.89271
374.543	1.37212
374.755	1.44392
374.967	2.25975
375.178	3.02457
375.39	2.05192
375.602	2.32023
375.813	1.09966
376.025	1.24273
376.236	2.26016
376.448	2.40982
376.66	1.83988
376.871	1.8125
377.083	3.13574
377.294	3.34985
377.506	1.88114
377.717	3.40657
377.929	2.40482
378.14	1.65765
378.352	2.72226
378.563	2.78325
378.775	3.44006
378.986	1.47618
379.197	2.4952
379.409	1.75171
379.62	2.86507
379.832	2.46411
380.043	2.21746
380.254	2.54495
380.466	1.2103
380.677	4.5657
380.888	4.17972
381.1	4.53275
381.311	4.43367
381.522	2.25235
381.733	4.95469
381.945	2.24123
382.156	2.26512
382.367	1.86451
382.578	4.82723
382.789	4.78072
383.001	1.91975
383.212	3.54623
383.423	3.5801
383.634	3.41221
383.845	2.73207
384.056	2.01625
384.267	2.29503
384.478	2.27175
384.69	1.4459
384.901	2.71839
385.112	2.67855
385.323	3.67316
385.534	2.72361
385.745	2.54452
385.956	2.68992
386.167	1.59937
386.378	2.75926
386.588	1.56516
386.799	1.51345
387.01	0.97294
387.221	3.13589
387.432	2.14896
387.643	3.95349
387.854	2.01328
388.065	2.12667
388.275	2.17251
388.486	1.91752
388.697	2.35731
388.908	2.04605
389.119	3.23103
389.329	3.81269
389.54	2.39308
389.751	2.6005
389.962	3.35133
390.172	2.46242
390.383	2.03609
390.594	1.79308
390.804	1.54102
391.015	1.87216
391.226	2.29435
391.436	2.6923
391.647	2.52997
391.858	2.87857
392.068	0.97289
392.279	1.38777
392.489	2.42474
392.7	3.09674
392.91	1.54827
393.121	1.76154
393.331	2.61419
393.542	3.26822
393.752	2.82747
393.963	2.38572
394.173	2.36293
394.384	2.87195
394.594	2.26618
394.804	1.36288
395.015	2.40789
395.225	2.69571
395.436	1.41086
395.646	2.75556
395.856	1.72476
396.067	1.1982
396.277	3.17521
396.487	2.67964
396.697	2.51364
396.908	3.17462
397.118	2.94264
397.328	2.45999
397.538	3.20857
397.749	1.71518
397.959	3.20201
398.169	2.88073
398.379	1.22369
398.589	2.99614
398.8	2.41003
399.01	2.34372
399.22	2.12173
399.43	4.27847
399.64	2.07014
399.85	2.91209
400.06	2.41219
400.27	1.95238
400.48	2.3948
400.69	3.62103
400.9	1.93615
401.11	1.8844
401.32	3.12728
401.53	2.00408
401.74	3.73937
401.95	3.005
402.16	1.75182
402.37	2.94683
402.58	1.93567
402.79	2.80267
403	3.22072
403.209	2.25073
403.419	3.0525
403.629	2.02538
403.839	2.95403
404.049	3.08465
404.258	1.82393
404.468	1.86526
404.678	2.90996
404.888	2.98931
405.097	1.77166
405.307	2.26807
405.517	2.84204
405.727	2.61741
405.936	2.15374
406.146	2.71904
406.356	3.45284
406.565	2.40063
406.775	1.99317
406.984	2.08263
407.194	3.93864
407.404	2.55547
407.613	2.83518
407.823	3.03269
408.032	3.42392
408.242	3.56491
408.451	2.17768
408.661	2.44677
408.87	3.9739
409.08	2.21716
409.289	2.85615
409.499	2.62679
409.708	2.67106
409.918	1.04103
410.127	2.61299
410.336	3.7663
410.546	3.01431
410.755	2.24529
410.964	2.15348
411.174	1.87724
411.383	2.83897
411.592	2.91012
411.802	1.80052
412.011	3.1388
412.22	2.55054
412.429	3.74292
412.639	3.72881
412.848	3.73239
413.057	3.77211
413.266	3.58591
413.475	2.73526
413.685	3.43226
413.894	3.36638
414.103	3.68094
414.312	3.32723
414.521	2.53454
414.73	2.7621
414.939	4.16177
415.148	3.12814
415.357	2.92619
415.566	2.37269
415.776	2.37803
415.985	2.27873
416.194	3.19752
416.403	3.94802
416.611	1.62719
416.82	2.14644
417.029	2.63922
417.238	2.08025
417.447	1.84876
417.656	2.24942
417.865	1.9593
418.074	2.34551
418.283	2.43217
418.492	3.14427
418.7	2.98939
418.909	3.81904
419.118	2.84873
419.327	3.02889
419.536	2.78421
419.744	2.46223
419.953	3.73829
420.162	3.7123
420.371	2.69298
420.579	2.58032
420.788	3.72031
420.997	3.70636
421.205	3.76907
421.414	3.4187
421.623	3.44397
421.831	3.04341
422.04	3.7851
422.249	2.88087
422.457	3.41747
422.666	2.78924
422.874	3.90498
423.083	3.95181
423.291	3.76791
423.5	3.43856
423.708	3.74859
423.917	4.15342
424.125	3.51308
424.334	3.22067
424.542	5.22051
424.751	4.36535
424.959	4.08386
425.167	4.51806
425.376	4.22641
425.584	3.44494
425.793	3.76819
426.001	2.76137
426.209	3.61978
426.418	2.63469
426.626	2.69871
426.834	2.41549
427.042	2.91806
