Data from WindowProjectSample_Transmission__66__00066__08703135383781875.txt Node

Date: Mon May 05 18:34:10 EDT 2025
User: jessi
Spectrometer: SR400872
Trigger mode: 0
Integration Time (sec): 5.000010E-1
Scans to average: 20
Electric dark correction enabled: true
Nonlinearity correction enabled: true
Boxcar width: 0
XAxis mode: Wavelengths
Number of Pixels in Spectrum: 3648
>>>>>Begin Spectral Data<<<<<
184.909	21211.91808
185.132	-5087.49165
185.355	-3157.0832
185.578	-18050.55195
185.801	1851.20302
186.024	10303.91784
186.247	-1805.69525
186.47	1213.09888
186.693	405.58966
186.916	315.49503
187.139	-3786.44934
187.362	3673.50185
187.585	4125.64383
187.808	3579.72224
188.031	-1.3062
188.254	-57249.62279
188.476	-748.63687
188.699	6209.51501
188.922	546.30579
189.145	-15997.51162
189.368	-798.46827
189.591	-1485.02132
189.813	3203.64301
190.036	-52438.73393
190.259	-901.85031
190.482	-4648.6786
190.705	7179.5982
190.927	-2616.78663
191.15	13413.31458
191.373	3342.83435
191.595	-8882.21946
191.818	-4277.32486
192.041	-8345.85097
192.263	-3455.32375
192.486	-833.35403
192.709	-4042.8546
192.931	7859.10386
193.154	-28352.58856
193.377	-2826.3737
193.599	-2636.72832
193.822	-9651.63386
194.044	-2160.60789
194.267	1214.83423
194.489	237.82549
194.712	-44407.1564
194.934	-32138.58299
195.157	1190.36539
195.379	1508.06428
195.602	-7065.03544
195.824	-1391.93195
196.047	-8513.65666
196.269	2781.52973
196.492	-6685.51573
196.714	28817.29564
196.936	-8749.07963
197.159	-1172.08517
197.381	1346.78135
197.604	462.68684
197.826	12450.08259
198.048	-10834.44704
198.271	-2832.82996
198.493	7951.9875
198.715	2323.84199
198.938	-470.67081
199.16	7161.00207
199.382	-103591.73062
199.604	2847.77202
199.827	-1119.9879
200.049	-3044.50671
200.271	14430.20809
200.493	1287.07376
200.715	-39388.6012
200.938	-6167.88511
201.16	-4232.63211
201.382	21285.24534
201.604	2346.57178
201.826	2344.7423
202.048	-2019.32443
202.27	-1992.40567
202.492	-36730.14211
202.715	3014.11585
202.937	-4592.45622
203.159	-6675.1819
203.381	1518.40135
203.603	6729.31928
203.825	7001.23365
204.047	2263.79816
204.269	-2822.55042
204.491	2262.80825
204.713	5811.34526
204.935	-498010.02754
205.156	1219.25675
205.378	-3034.17201
205.6	1652.79303
205.822	159287.83796
206.044	-1140.06594
206.266	1578.44122
206.488	4532.11489
206.71	-5281.66396
206.932	1127.01556
207.153	12255.55927
207.375	-7317.28396
207.597	-38774.06725
207.819	-2969.01307
208.041	2424.49382
208.262	544.33998
208.484	680.41663
208.706	-822.612
208.927	-848.97199
209.149	553.25325
209.371	-3081.29914
209.593	-380.81144
209.814	-783.84662
210.036	607.67195
210.258	-659.4069
210.479	1824.53642
210.701	1711.76915
210.922	3451.08647
211.144	-4410.04804
211.366	2073.76961
211.587	6244.14597
211.809	-8234.72955
212.03	2339.94943
212.252	443.19916
212.473	2189.3281
212.695	-6130.26255
212.916	2999.36403
213.138	-749.61295
213.359	3842.41013
213.581	5264.84469
213.802	-790.90629
214.024	1128.95437
214.245	2261.93719
214.466	1929.12482
214.688	-3169.73865
214.909	-1221.44771
215.131	-1781.48029
215.352	-3084.66883
215.573	14873.36258
215.795	5172.35029
216.016	5375.0593
216.237	875.29415
216.459	3764.13735
216.68	1910.24515
216.901	5134.49348
217.122	-3162.04835
217.344	-11674.27912
217.565	3517.02927
217.786	9342.79682
218.007	18774.37554
218.228	-850.72131
218.45	5675.57535
218.671	863.37935
218.892	36455.37317
219.113	1579.33902
219.334	-328.45196
219.555	10163.21273
219.776	3174.43179
219.997	22676.19973
220.219	2972.03741
220.44	-11187.01445
220.661	460.62161
220.882	1538.48278
221.103	-1092.14959
221.324	2366.1686
221.545	2361.83951
221.766	-8702.30461
221.987	1023.95017
222.208	1690.18964
222.429	4321.79192
222.65	92.36032
222.87	18726.38969
223.091	743.60586
223.312	592.48553
223.533	1423.24567
223.754	1534.90888
223.975	1402.10311
224.196	2044.11781
224.417	1329.82764
224.637	573.0668
224.858	-42.58034
225.079	1170.76961
225.3	666.93034
225.521	3789.01484
225.741	474.05279
225.962	526.01486
226.183	144.5645
226.404	672.59506
226.624	460.95785
226.845	658.33527
227.066	402.49376
227.286	250.62112
227.507	141.71473
227.728	122.70973
227.948	230.24653
228.169	72.07901
228.389	89.62459
228.61	50.55259
228.831	65.23995
229.051	2.04796
229.272	40.84884
229.492	56.52095
229.713	13.8989
229.933	38.47535
230.154	31.51784
230.374	55.07519
230.595	38.81929
230.815	24.51153
231.036	39.67742
231.256	-8.38805
231.477	70.05836
231.697	38.43031
231.917	41.69105
232.138	59.03633
232.358	116.02514
232.579	102.43575
232.799	19.70852
233.019	98.581
233.24	116.98808
233.46	40.35075
233.68	66.36824
233.901	41.74222
234.121	29.17791
234.341	12.94308
234.561	-0.41927
234.782	22.28497
235.002	71.54294
235.222	-4.02786
235.442	65.9134
235.662	34.00615
235.883	61.56679
236.103	50.70902
236.323	32.69807
236.543	28.14268
236.763	39.60809
236.983	45.10876
237.203	41.61601
237.423	60.80829
237.643	87.9736
237.864	75.21372
238.084	21.66688
238.304	27.22162
238.524	46.65256
238.744	40.30693
238.964	74.06521
239.184	63.34111
239.404	65.35572
239.624	34.91776
239.843	60.32707
240.063	35.57002
240.283	21.28566
240.503	26.56037
240.723	26.1017
240.943	16.00677
241.163	19.78815
241.383	14.67348
241.603	6.44938
241.822	9.53565
242.042	6.7288
242.262	8.45663
242.482	10.1484
242.702	10.64924
242.921	3.00852
243.141	7.16946
243.361	6.34333
243.581	9.61654
243.8	7.8998
244.02	5.4491
244.24	9.40838
244.459	9.21634
244.679	18.30508
244.899	11.25504
245.118	13.22005
245.338	12.73606
245.558	13.55385
245.777	8.53392
245.997	10.19457
246.216	10.20662
246.436	6.03768
246.655	4.91928
246.875	3.19362
247.094	6.31187
247.314	2.11622
247.533	3.61649
247.753	4.3487
247.972	3.4675
248.192	1.21562
248.411	2.1331
248.631	3.59948
248.85	4.5837
249.07	4.03294
249.289	6.12445
249.508	4.91195
249.728	6.91754
249.947	7.1057
250.166	8.78915
250.386	3.7788
250.605	6.87342
250.824	11.25323
251.044	7.99477
251.263	29.2694
251.482	14.60036
251.701	11.96876
251.921	-0.09352
252.14	3.19968
252.359	4.26534
252.578	10.32827
252.798	3.33416
253.017	9.30528
253.236	3.93393
253.455	5.68553
253.674	10.66152
253.893	4.9565
254.112	7.68316
254.331	11.37943
254.551	8.94616
254.77	3.77339
254.989	13.42123
255.208	10.35436
255.427	15.29989
255.646	11.86516
255.865	21.23467
256.084	9.26629
256.303	10.94676
256.522	13.7177
256.741	2.59272
256.96	3.73367
257.179	9.0659
257.397	10.71602
257.616	6.14816
257.835	6.36006
258.054	15.45978
258.273	10.6874
258.492	11.33591
258.711	7.20558
258.93	3.19634
259.148	4.77019
259.367	4.41286
259.586	5.61236
259.805	2.38943
260.023	5.1427
260.242	3.8717
260.461	2.77468
260.68	1.36612
260.898	4.4321
261.117	1.49346
261.336	1.01
261.554	3.53202
261.773	3.5775
261.992	0.71782
262.21	3.36281
262.429	3.58294
262.648	7.38398
262.866	8.17696
263.085	5.56613
263.303	5.14067
263.522	8.72591
263.74	8.45209
263.959	15.39489
264.178	7.26065
264.396	7.01713
264.615	4.82883
264.833	10.95524
265.051	8.98305
265.27	10.99199
265.488	11.20506
265.707	6.33302
265.925	10.83716
266.144	4.65272
266.362	5.94694
266.58	5.59829
266.799	5.18368
267.017	6.29282
267.235	5.25546
267.454	3.31214
267.672	1.98121
267.89	4.26585
268.109	4.61938
268.327	4.47996
268.545	1.02503
268.763	4.04598
268.982	1.48252
269.2	4.20548
269.418	3.12498
269.636	2.06093
269.854	4.89754
270.073	3.09876
270.291	1.87345
270.509	1.55835
270.727	4.50569
270.945	7.37475
271.163	7.14751
271.381	1.49248
271.599	3.13351
271.817	5.29935
272.036	1.7817
272.254	3.2446
272.472	2.24097
272.69	2.70874
272.908	2.45328
273.126	4.64893
273.344	5.25652
273.562	1.7359
273.779	2.65812
273.997	3.97556
274.215	4.26236
274.433	3.00583
274.651	4.54944
274.869	4.85029
275.087	2.73918
275.305	4.08584
275.523	2.68851
275.74	3.0199
275.958	5.59976
276.176	8.28293
276.394	2.50434
276.612	3.26911
276.829	3.24546
277.047	2.81089
277.265	2.88609
277.483	3.55421
277.7	4.4332
277.918	3.54564
278.136	6.08556
278.353	2.82566
278.571	1.73256
278.789	4.40997
279.006	0.89256
279.224	2.98272
279.442	5.22251
279.659	3.64559
279.877	2.42183
280.094	5.99823
280.312	1.18095
280.529	3.45547
280.747	0.92811
280.964	2.74998
281.182	6.25668
281.399	2.91763
281.617	3.97532
281.834	2.29818
282.052	1.94569
282.269	3.23868
282.487	2.55394
282.704	2.02555
282.921	2.26975
283.139	3.45378
283.356	4.08525
283.574	3.91701
283.791	1.95795
284.008	5.44721
284.226	3.03424
284.443	3.28575
284.66	4.38823
284.877	3.47958
285.095	2.18301
285.312	1.71732
285.529	0.86595
285.746	0.85121
285.964	2.02852
286.181	1.49146
286.398	1.94397
286.615	2.81341
286.832	2.5884
287.05	0.61993
287.267	1.85861
287.484	1.84236
287.701	2.73065
287.918	2.71197
288.135	2.59989
288.352	1.27937
288.569	1.54514
288.786	2.40915
289.003	2.00855
289.22	3.05331
289.437	1.7101
289.654	2.85725
289.871	3.23184
290.088	2.9614
290.305	2.30202
290.522	1.83279
290.739	2.17439
290.956	3.20827
291.173	3.60731
291.39	3.42014
291.607	2.45372
291.824	1.81291
292.04	1.27584
292.257	2.93443
292.474	3.26988
292.691	2.05812
292.908	0.92711
293.125	1.63366
293.341	1.26215
293.558	4.87894
293.775	1.92294
293.992	2.03254
294.208	0.87081
294.425	1.41853
294.642	2.00813
294.858	2.71913
295.075	0.65112
295.292	2.04506
295.508	2.40619
295.725	4.107
295.942	1.82099
296.158	1.44598
296.375	2.2306
296.591	1.71112
296.808	1.97811
297.024	2.24602
297.241	2.51925
297.458	2.77167
297.674	0.57616
297.891	2.15704
298.107	1.83613
298.323	1.48145
298.54	3.55696
298.756	1.80863
298.973	1.18341
299.189	3.66862
299.406	1.90312
299.622	3.44627
299.838	3.41396
300.055	3.30907
300.271	1.40511
300.487	1.84008
300.704	2.12837
300.92	1.63499
301.136	5.20858
301.353	3.49369
301.569	2.80619
301.785	3.08117
302.001	3.59377
302.218	3.16207
302.434	3.44152
302.65	1.99316
302.866	2.60574
303.083	5.1038
303.299	4.95126
303.515	3.31371
303.731	3.52223
303.947	1.92089
304.163	2.65053
304.379	3.45285
304.595	3.61651
304.812	2.65267
305.028	2.68237
305.244	3.09561
305.46	3.9607
305.676	4.07897
305.892	4.62007
306.108	3.74118
306.324	2.96957
306.54	5.18614
306.756	3.91464
306.972	3.80234
307.187	3.48285
307.403	4.59327
307.619	2.95277
307.835	4.39668
308.051	4.88136
308.267	2.62108
308.483	4.76375
308.699	4.08665
308.914	3.6465
309.13	3.43588
309.346	2.50595
309.562	2.75826
309.778	2.52766
309.993	4.1001
310.209	3.88654
310.425	2.68051
310.641	3.63259
310.856	2.89773
311.072	2.73596
311.288	3.61457
311.503	3.96407
311.719	2.23062
311.935	2.24622
312.15	4.27015
312.366	3.87293
312.581	4.0969
312.797	3.69729
313.013	4.49421
313.228	3.14399
313.444	3.46938
313.659	3.12254
313.875	4.23237
314.09	3.60702
314.306	5.02454
314.521	4.57195
314.737	4.56082
314.952	3.8406
315.168	3.89083
315.383	4.21609
315.599	3.48717
315.814	3.64774
316.029	4.36105
316.245	2.89982
316.46	2.38975
316.675	4.99962
316.891	5.3838
317.106	6.57933
317.321	4.02439
317.537	4.6369
317.752	4.77412
317.967	4.78764
318.183	3.13303
318.398	3.6821
318.613	4.70242
318.828	5.4735
319.043	4.69397
319.259	3.89914
319.474	4.15559
319.689	5.22716
319.904	2.62243
320.119	4.93958
320.334	4.34531
320.549	3.88769
320.765	5.14864
320.98	4.40337
321.195	4.54434
321.41	4.10772
321.625	4.84773
321.84	5.75896
322.055	5.79266
322.27	3.39789
322.485	3.18428
322.7	4.59849
322.915	5.14078
323.13	3.68634
323.345	5.84835
323.56	5.50055
323.775	5.02031
323.989	4.73612
324.204	4.56526
324.419	5.5085
324.634	3.51703
324.849	4.18302
325.064	7.46756
325.279	5.47483
325.493	4.74932
325.708	5.22988
325.923	3.77055
326.138	4.15874
326.352	6.04739
326.567	5.36327
326.782	4.15113
326.997	4.06758
327.211	5.01586
327.426	4.80303
327.641	4.22515
327.855	3.20644
328.07	4.99415
328.285	6.27957
328.499	4.11003
328.714	4.83762
328.928	5.078
329.143	4.58818
329.358	5.64944
329.572	5.57188
329.787	5.9339
330.001	7.01972
330.216	3.48399
330.43	6.59903
330.645	6.02199
330.859	5.62325
331.074	3.82733
331.288	4.82759
331.503	6.13189
331.717	3.86574
331.931	5.05338
332.146	5.10413
332.36	6.72736
332.575	5.10078
332.789	5.24478
333.003	5.20816
333.218	5.49846
333.432	4.51805
333.646	5.9184
333.86	6.73767
334.075	6.41916
334.289	4.57348
334.503	3.90574
334.717	5.49179
334.932	5.07714
335.146	5.79633
335.36	4.29537
335.574	5.55875
335.788	5.33083
336.003	5.77591
336.217	5.66069
336.431	5.51011
336.645	4.71091
336.859	4.17309
337.073	5.05371
337.287	5.57517
337.501	4.2063
337.715	5.81865
337.929	6.16717
338.143	4.39672
338.357	5.25753
338.571	4.89341
338.785	5.98614
338.999	5.01015
339.213	4.88987
339.427	4.15512
339.641	6.49638
339.855	4.98713
340.069	4.75095
340.283	6.13273
340.497	6.89066
340.711	5.98606
340.924	5.49785
341.138	4.74111
341.352	4.38581
341.566	5.66571
341.78	4.30671
341.993	5.21429
342.207	4.71334
342.421	5.84324
342.635	5.45755
342.848	5.206
343.062	3.73443
343.276	5.12666
343.49	7.28255
343.703	5.07565
343.917	6.58914
344.131	6.72959
344.344	5.06368
344.558	5.47988
344.771	4.68971
344.985	7.0008
345.199	7.19596
345.412	6.12173
345.626	6.12801
345.839	4.39073
346.053	4.84429
346.266	5.02146
346.48	6.33005
346.693	6.2042
346.907	5.96323
347.12	5.04588
347.334	5.92694
347.547	6.10926
347.76	5.46645
347.974	6.71604
348.187	5.90977
348.401	5.56204
348.614	5.14665
348.827	5.52507
349.041	6.23306
349.254	4.4836
349.467	5.47226
349.681	5.21273
349.894	5.2538
350.107	6.9457
350.32	7.59808
350.534	4.91769
350.747	5.6447
350.96	5.21973
351.173	5.33482
351.386	5.74866
351.6	5.46265
351.813	5.74473
352.026	5.65552
352.239	5.17201
352.452	5.50904
352.665	7.00883
352.878	5.99869
353.092	7.73399
353.305	6.62495
353.518	6.20541
353.731	5.37001
353.944	7.11645
354.157	5.94651
354.37	5.78535
354.583	5.34979
354.796	5.21489
355.009	7.03923
355.222	6.68424
355.435	6.23554
355.647	7.20306
355.86	5.80198
356.073	6.51714
356.286	5.92036
356.499	7.16127
356.712	6.99247
356.925	7.03014
357.138	7.23528
357.35	6.08408
357.563	6.29796
357.776	6.79558
357.989	6.62313
358.201	6.9737
358.414	6.85818
358.627	7.67309
358.84	6.50802
359.052	5.72284
359.265	6.05023
359.478	7.53565
359.69	4.87902
359.903	7.40814
360.116	7.62641
360.328	5.78544
360.541	7.65234
360.753	6.53136
360.966	6.85641
361.179	7.04605
361.391	6.79232
361.604	6.79306
361.816	6.93488
362.029	6.80013
362.241	6.40876
362.454	6.78101
362.666	6.24473
362.879	7.36925
363.091	6.66318
363.304	6.45404
363.516	6.51932
363.728	6.16292
363.941	7.04307
364.153	6.88017
364.366	5.42491
364.578	6.14962
364.79	7.00104
365.003	6.95982
365.215	6.36583
365.427	7.38744
365.639	7.53076
365.852	6.8715
366.064	8.38022
366.276	6.74372
366.488	7.11033
366.701	6.8105
366.913	6.79176
367.125	6.84844
367.337	6.19509
367.549	6.46242
367.762	6.95165
367.974	6.92141
368.186	6.603
368.398	7.40867
368.61	7.24777
368.822	7.36037
369.034	6.72631
369.246	7.44778
369.458	9.23947
369.67	6.37755
369.882	8.21135
370.094	5.72647
370.306	8.16217
370.518	6.91067
370.73	6.74388
370.942	6.83039
371.154	7.0841
371.366	6.9755
371.578	7.47094
371.79	7.01255
372.002	7.91331
372.214	8.81609
372.425	7.01031
372.637	8.30647
372.849	7.39975
373.061	5.70329
373.273	7.41522
373.484	7.40724
373.696	7.77372
373.908	5.68504
374.12	7.9007
374.331	7.54104
374.543	6.68347
374.755	6.59213
374.967	7.32595
375.178	7.98907
375.39	6.98621
375.602	7.48129
375.813	6.25652
376.025	6.90595
376.236	7.48618
376.448	7.75505
376.66	7.32655
376.871	7.43529
377.083	8.36401
377.294	8.85022
377.506	7.20593
377.717	8.62493
377.929	7.68807
378.14	7.3026
378.352	7.70335
378.563	7.82923
378.775	8.4433
378.986	6.75556
379.197	7.33843
379.409	6.91418
379.62	7.78723
379.832	7.77443
380.043	7.25421
380.254	7.84099
380.466	6.77143
380.677	9.64009
380.888	8.94217
381.1	9.36454
381.311	9.45591
381.522	7.84452
381.733	9.60102
381.945	7.63074
382.156	7.59906
382.367	7.28457
382.578	9.58618
382.789	9.77311
383.001	7.27494
383.212	8.94544
383.423	9.07955
383.634	8.59877
383.845	8.51049
384.056	7.60562
384.267	7.92712
384.478	8.00517
384.69	7.22985
384.901	8.21602
385.112	8.10569
385.323	9.2037
385.534	8.28897
385.745	8.16209
385.956	8.069
386.167	7.45763
386.378	8.26241
386.588	7.56663
386.799	7.33339
387.01	7.07057
387.221	8.49578
387.432	8.00853
387.643	9.22448
387.854	7.88304
388.065	7.77624
388.275	7.91224
388.486	7.55014
388.697	8.0488
388.908	7.59156
389.119	8.80301
389.329	8.97879
389.54	8.12296
389.751	8.27671
389.962	9.01327
390.172	8.22732
390.383	8.15004
390.594	7.87132
390.804	7.9734
391.015	7.96217
391.226	8.50449
391.436	8.69955
391.647	8.48835
391.858	8.64699
392.068	7.33791
392.279	7.61434
392.489	8.56072
392.7	8.8262
392.91	7.89967
393.121	7.7102
393.331	8.62797
393.542	9.1406
393.752	8.88113
393.963	8.69382
394.173	8.76667
394.384	8.75965
394.594	8.54416
394.804	7.64965
395.015	8.43374
395.225	8.59159
395.436	7.65834
395.646	8.40899
395.856	8.04034
396.067	7.24384
396.277	8.80526
396.487	8.48779
396.697	8.51152
396.908	8.59931
397.118	8.64545
397.328	8.45068
397.538	9.01497
397.749	7.78759
397.959	8.99709
398.169	8.65502
398.379	7.57737
398.589	8.74884
398.8	8.54095
399.01	8.48425
399.22	8.16358
399.43	9.7338
399.64	8.37377
399.85	8.73008
400.06	8.46414
400.27	7.78608
400.48	8.27333
400.69	9.23136
400.9	8.09495
401.11	7.60655
401.32	8.81735
401.53	8.05546
401.74	9.38342
401.95	8.81018
402.16	8.02484
402.37	8.6619
402.58	8.17006
402.79	8.71772
403	9.33232
403.209	8.26621
403.419	9.43066
403.629	8.11953
403.839	9.33979
404.049	9.25808
404.258	8.47513
404.468	8.25032
404.678	8.91243
404.888	9.39326
405.097	8.5298
405.307	8.48149
405.517	8.96445
405.727	8.88234
405.936	8.34829
406.146	8.79254
406.356	9.46525
406.565	8.52766
406.775	8.31167
406.984	8.15924
407.194	9.67993
407.404	8.44869
407.613	8.86029
407.823	8.96856
408.032	9.27755
408.242	9.20696
408.451	8.25366
408.661	8.54281
408.87	9.81465
409.08	8.30617
409.289	8.848
409.499	8.9238
409.708	8.90397
409.918	7.49485
410.127	9.05218
410.336	9.76059
410.546	9.20162
410.755	8.49992
410.964	8.57312
411.174	8.15808
411.383	8.91689
411.592	8.79624
411.802	8.08677
412.011	9.09873
412.22	8.51999
412.429	9.78345
412.639	9.6677
412.848	9.16038
413.057	9.57112
413.266	9.59727
413.475	8.83704
413.685	9.1824
413.894	9.51479
414.103	9.47186
414.312	9.38751
414.521	8.8253
414.73	9.18188
414.939	10.37235
415.148	9.50698
415.357	9.34722
415.566	9.00103
415.776	8.9881
415.985	9.0899
416.194	9.71446
416.403	10.49452
416.611	8.74613
416.82	9.16826
417.029	9.44861
417.238	9.22499
417.447	9.08142
417.656	9.50213
417.865	9.19605
418.074	9.59642
418.283	9.69475
418.492	10.23107
418.7	9.98766
418.909	10.99682
419.118	10.10174
419.327	10.52703
419.536	10.4622
419.744	10.54394
419.953	11.73765
420.162	11.98819
420.371	11.56958
420.579	12.05273
420.788	12.85076
420.997	12.92521
421.205	13.24647
421.414	12.93974
421.623	12.94621
421.831	12.61067
422.04	12.94266
422.249	12.12615
422.457	12.4619
422.666	11.6096
422.874	12.45899
423.083	12.63983
423.291	12.72775
423.5	12.5322
423.708	13.02526
423.917	13.46027
424.125	13.0771
424.334	12.9383
424.542	14.41697
424.751	13.79158
424.959	13.32713
425.167	13.3908
425.376	13.18032
425.584	11.80221
425.793	11.78889
426.001	10.79472
426.209	10.82572
426.418	9.82914
