Data from WindowProjectSample_Transmission__41__00041.txt Node

Date: Sat May 03 16:29:10 EDT 2025
User: jessi
Spectrometer: SR400872
Trigger mode: 0
Integration Time (sec): 5.000010E-1
Scans to average: 6
Electric dark correction enabled: true
Nonlinearity correction enabled: true
Boxcar width: 0
XAxis mode: Wavelengths
Number of Pixels in Spectrum: 3648
>>>>>Begin Spectral Data<<<<<
184.909	178622.72185
185.132	1703.44874
185.355	-2041.53742
185.578	3204.48915
185.801	-505.80249
186.024	6031.02017
186.247	1224.6069
186.47	1020.90531
186.693	-464.16113
186.916	231.00504
187.139	10413.62924
187.362	2941.00267
187.585	2719.31593
187.808	-1533.57384
188.031	124.69881
188.254	7244.70981
188.476	564.19136
188.699	-4400.46854
188.922	-355.53979
189.145	-4324.66673
189.368	-523.04475
189.591	-921.56593
189.813	-2386.72024
190.036	4570.09077
190.259	3361.38458
190.482	2365.28891
190.705	8774.54457
190.927	-1682.3722
191.15	-1669.83673
191.373	4851.38607
191.595	-1901.97323
191.818	8942.36151
192.041	-197.66723
192.263	-2328.80738
192.486	-1147.94782
192.709	9208.95169
192.931	-2811.10376
193.154	-2006.28249
193.377	4805.95426
193.599	5865.84943
193.822	-1837.52837
194.044	-1894.48083
194.267	632.17175
194.489	51.50754
194.712	2220.66837
194.934	3399.7341
195.157	-8306.73598
195.379	2112.72194
195.602	5248.57576
195.824	5548.30327
196.047	-9145.71695
196.269	-10285.45686
196.492	-1130.85477
196.714	-5530.81864
196.936	4573.74115
197.159	-2553.92701
197.381	-532.1694
197.604	571.04454
197.826	-3509.7704
198.048	-1378.77596
198.271	-12342.03817
198.493	9802.29084
198.715	-2498.92544
198.938	-824.68641
199.16	-3634.20351
199.382	1874.1377
199.604	-1648.93802
199.827	-1293.80368
200.049	-4346.46961
200.271	2577.73398
200.493	-26102.65654
200.715	4990.07346
200.938	12696.93066
201.16	-226307.893
201.382	-5712.83271
201.604	-1066.98071
201.826	-6962.8354
202.048	-7330.57415
202.27	-4587.6431
202.492	-3784.55548
202.715	-1420.96859
202.937	-3528.5962
203.159	1101.61992
203.381	-92022.70154
203.603	-1015.9013
203.825	-1317.77013
204.047	2181.67136
204.269	-913.30272
204.491	7024.35242
204.713	-9525.00682
204.935	37025.10774
205.156	2008.31851
205.378	-8062.12128
205.6	-1623.93569
205.822	6360.1372
206.044	-246.29395
206.266	-2006.80119
206.488	804.14843
206.71	-509522.77889
206.932	-15836.38638
207.153	11048.65543
207.375	-2197.19399
207.597	15502.67667
207.819	1773.85148
208.041	6251.096
208.262	634.76729
208.484	-869.18241
208.706	-948.99435
208.927	11023.02269
209.149	-8055.10951
209.371	-2694.84822
209.593	-2260.00538
209.814	-4283.20044
210.036	2717.94152
210.258	-667.74797
210.479	2217.18911
210.701	790.55808
210.922	4031.22907
211.144	-1503.64265
211.366	5554.54543
211.587	-663.60086
211.809	-3746.80366
212.03	-2524.37042
212.252	-340.00409
212.473	3162.41699
212.695	-888.22167
212.916	-915.97468
213.138	717.89153
213.359	-1227.94201
213.581	-3179.00124
213.802	-1267.83125
214.024	10403.86085
214.245	-1054.22279
214.466	-239.13989
214.688	-3658.41377
214.909	-780.24176
215.131	9561.07099
215.352	-1109.27625
215.573	-250652.05467
215.795	4509.20298
216.016	-3922.20258
216.237	-525.72804
216.459	-11963.80802
216.68	-1613.02117
216.901	-1742.01421
217.122	1848.08782
217.344	-8912.61765
217.565	-1621.77443
217.786	23033.50444
218.007	1060.17176
218.228	-4030.23588
218.45	-5858.29521
218.671	-1466.04016
218.892	788.4037
219.113	1832.95412
219.334	330.50903
219.555	-6251.31991
219.776	33814.38114
219.997	-6772.9802
220.219	-8840.71409
220.44	-5059.46722
220.661	-1364.99809
220.882	13477.83321
221.103	-892.58558
221.324	2466.20474
221.545	-6544.79155
221.766	-1501.77671
221.987	-458.48527
222.208	1883.09904
222.429	6796.56513
222.65	-75.54928
222.87	-670.911
223.091	37861.69292
223.312	817.36505
223.533	-2121.69049
223.754	3600.26766
223.975	1811.56412
224.196	-814.15585
224.417	-29805.45101
224.637	-2009.59761
224.858	465.40504
225.079	3601.85026
225.3	1770.91017
225.521	3560.99723
225.741	-2794.83623
225.962	1601.62712
226.183	1008.21509
226.404	1887.46598
226.624	1911.03582
226.845	1390.72227
227.066	2486.09796
227.286	687.32963
227.507	379.09092
227.728	410.72648
227.948	536.55385
228.169	123.17972
228.389	124.37476
228.61	56.34791
228.831	91.11155
229.051	9.71161
229.272	46.36672
229.492	62.37982
229.713	22.04216
229.933	51.02968
230.154	42.30189
230.374	68.42453
230.595	54.46322
230.815	39.4555
231.036	53.73456
231.256	-10.59913
231.477	111.33671
231.697	67.62757
231.917	57.78129
232.138	83.58094
232.358	176.04202
232.579	175.75991
232.799	31.79612
233.019	162.09587
233.24	234.59471
233.46	67.18196
233.68	114.87012
233.901	94.60326
234.121	48.19675
234.341	16.72463
234.561	-4.18702
234.782	32.94029
235.002	120.59061
235.222	-1.77559
235.442	91.66152
235.662	49.05567
235.883	100.34773
236.103	85.46903
236.323	70.0921
236.543	48.36477
236.763	69.02054
236.983	73.32228
237.203	74.88092
237.423	106.94631
237.643	153.40076
237.864	139.14263
238.084	34.44297
238.304	54.18739
238.524	77.25934
238.744	73.22082
238.964	115.45096
239.184	107.97545
239.404	103.47869
239.624	53.66775
239.843	98.47847
240.063	53.90963
240.283	36.48078
240.503	36.50724
240.723	36.59751
240.943	17.82115
241.163	27.95658
241.383	19.35442
241.603	9.2693
241.822	11.84222
242.042	8.41456
242.262	10.11131
242.482	12.81701
242.702	14.3268
242.921	5.08473
243.141	10.24449
243.361	8.64845
243.581	13.03226
243.8	12.0426
244.02	7.93186
244.24	12.87042
244.459	13.87351
244.679	28.19271
244.899	17.60882
245.118	21.19935
245.338	17.45796
245.558	20.61119
245.777	12.1632
245.997	13.35257
246.216	14.28185
246.436	7.67367
246.655	5.82502
246.875	4.40687
247.094	7.88916
247.314	2.74625
247.533	4.48647
247.753	6.07963
247.972	4.33814
248.192	1.78818
248.411	3.00454
248.631	5.43355
248.85	6.78472
249.07	4.90225
249.289	8.73401
249.508	6.61772
249.728	10.96353
249.947	10.93129
250.166	12.5827
250.386	6.84435
250.605	9.82702
250.824	15.07389
251.044	10.82935
251.263	36.48663
251.482	20.25135
251.701	17.60787
251.921	0.871
252.14	5.33486
252.359	5.87738
252.578	13.68216
252.798	5.14178
253.017	13.21062
253.236	6.5449
253.455	7.5106
253.674	16.55848
253.893	8.60434
254.112	11.22558
254.331	16.49661
254.551	14.44453
254.77	5.60795
254.989	22.93499
255.208	19.21976
255.427	22.56872
255.646	20.63155
255.865	32.6497
256.084	13.57423
256.303	15.62539
256.522	21.51503
256.741	3.18728
256.96	5.70548
257.179	15.04557
257.397	15.51106
257.616	8.41764
257.835	8.84414
258.054	22.25969
258.273	13.15381
258.492	15.42591
258.711	8.64351
258.93	4.09979
259.148	5.51466
259.367	5.59203
259.586	7.47328
259.805	3.39025
260.023	6.87293
260.242	5.18834
260.461	3.50518
260.68	2.01588
260.898	5.93248
261.117	1.80433
261.336	1.40589
261.554	5.14061
261.773	4.91587
261.992	0.61597
262.21	4.77795
262.429	6.23436
262.648	10.20067
262.866	12.09492
263.085	7.83514
263.303	7.20445
263.522	12.28938
263.74	13.54105
263.959	21.91939
264.178	10.37767
264.396	10.81597
264.615	6.81498
264.833	17.31324
265.051	15.4233
265.27	13.39257
265.488	16.31317
265.707	9.79901
265.925	15.15484
266.144	6.59746
266.362	8.82949
266.58	8.91516
266.799	6.92439
267.017	8.57605
267.235	7.37842
267.454	4.40539
267.672	3.21379
267.89	5.85893
268.109	6.74063
268.327	6.16627
268.545	1.64043
268.763	5.80759
268.982	3.12856
269.2	7.6578
269.418	3.8319
269.636	2.67938
269.854	6.64472
270.073	4.26633
270.291	2.17332
270.509	2.92946
270.727	5.78681
270.945	9.95417
271.163	10.14324
271.381	2.49565
271.599	4.25685
271.817	7.09414
272.036	2.63927
272.254	4.50155
272.472	3.42987
272.69	3.40806
272.908	3.47301
273.126	5.87842
273.344	7.45328
273.562	2.80317
273.779	3.76572
273.997	5.24199
274.215	6.03796
274.433	4.66256
274.651	6.30783
274.869	6.58333
275.087	3.73893
275.305	6.09894
275.523	3.56896
275.74	4.20081
275.958	7.7762
276.176	11.20901
276.394	3.27082
276.612	4.1259
276.829	4.63402
277.047	3.68202
277.265	4.29247
277.483	5.41572
277.7	6.18906
277.918	5.12901
278.136	8.95799
278.353	4.77228
278.571	2.107
278.789	6.97
279.006	1.79574
279.224	4.39779
279.442	7.02457
279.659	4.59488
279.877	3.70666
280.094	7.69501
280.312	1.83422
280.529	5.01418
280.747	1.21461
280.964	3.67204
281.182	8.41739
281.399	4.16124
281.617	5.51085
281.834	3.84854
282.052	3.06218
282.269	4.38972
282.487	3.69706
282.704	2.90202
282.921	3.18149
283.139	4.33053
283.356	6.17172
283.574	4.8287
283.791	2.64157
284.008	7.19486
284.226	4.28016
284.443	4.487
284.66	5.54259
284.877	4.77341
285.095	3.23177
285.312	2.32106
285.529	1.59485
285.746	1.13421
285.964	2.70972
286.181	1.69194
286.398	2.69152
286.615	3.72826
286.832	3.62433
287.05	1.19501
287.267	2.49754
287.484	2.98172
287.701	3.87265
287.918	3.69949
288.135	3.80054
288.352	1.84627
288.569	2.00946
288.786	3.45109
289.003	2.89337
289.22	4.04142
289.437	2.6056
289.654	4.00502
289.871	4.52151
290.088	3.87035
290.305	3.12583
290.522	2.50916
290.739	3.28084
290.956	4.3896
291.173	5.32076
291.39	4.93195
291.607	3.43495
291.824	2.6377
292.04	1.70243
292.257	4.0463
292.474	4.55159
292.691	2.94664
292.908	1.51504
293.125	2.42396
293.341	1.71468
293.558	7.1663
293.775	2.95305
293.992	2.83599
294.208	1.25764
294.425	1.79349
294.642	2.42402
294.858	4.20907
295.075	1.13958
295.292	2.62494
295.508	3.53971
295.725	5.24034
295.942	2.50063
296.158	1.943
296.375	3.04603
296.591	2.3826
296.808	2.53317
297.024	3.0067
297.241	3.33342
297.458	3.50907
297.674	0.51732
297.891	2.67956
298.107	2.34198
298.323	1.73041
298.54	4.10996
298.756	2.23993
298.973	1.18754
299.189	4.30942
299.406	2.09535
299.622	4.3674
299.838	4.4941
300.055	4.04616
300.271	1.50452
300.487	1.70054
300.704	2.16247
300.92	1.48577
301.136	5.8804
301.353	4.33565
301.569	3.13062
301.785	3.62277
302.001	4.23447
302.218	3.58781
302.434	3.85826
302.65	1.60112
302.866	2.58413
303.083	6.14435
303.299	5.84031
303.515	3.44148
303.731	3.92272
303.947	1.81517
304.163	2.37522
304.379	3.74062
304.595	4.01551
304.812	2.44725
305.028	2.3012
305.244	2.74421
305.46	4.18484
305.676	4.55883
305.892	5.23883
306.108	3.77447
306.324	3.05926
306.54	5.91156
306.756	4.19247
306.972	3.99854
307.187	3.28487
307.403	5.36264
307.619	2.4734
307.835	4.51901
308.051	5.10034
308.267	1.72662
308.483	5.07298
308.699	3.96707
308.914	3.62359
309.13	3.50531
309.346	1.8061
309.562	2.18892
309.778	1.75743
309.993	4.02912
310.209	3.51622
310.425	1.82066
310.641	3.35933
310.856	2.20575
311.072	2.13011
311.288	3.28441
311.503	3.65649
311.719	1.45032
311.935	1.34504
312.15	4.09857
312.366	3.77636
312.581	4.28147
312.797	3.68782
313.013	4.23656
313.228	2.70911
313.444	3.45468
313.659	2.5632
313.875	3.89175
314.09	3.18505
314.306	5.18528
314.521	4.49288
314.737	4.26795
314.952	3.70228
315.168	3.53824
315.383	4.2403
315.599	2.9308
315.814	3.03338
316.029	4.53682
316.245	1.9218
316.46	1.40355
316.675	5.11414
316.891	5.92763
317.106	6.88024
317.321	4.2029
317.537	4.36319
317.752	4.51781
317.967	4.45606
318.183	2.59841
318.398	2.94128
318.613	4.68998
318.828	5.17581
319.043	4.26932
319.259	2.75341
319.474	3.77592
319.689	4.66884
319.904	1.5007
320.119	4.77378
320.334	3.86891
320.549	3.68623
320.765	5.16008
320.98	3.72097
321.195	4.39586
321.41	3.44268
321.625	4.56346
321.84	5.75305
322.055	5.66644
322.27	2.46952
322.485	2.19258
322.7	3.53248
322.915	5.13875
323.13	2.55013
323.345	5.55033
323.56	4.40492
323.775	4.3208
323.989	4.21548
324.204	3.88488
324.419	4.81558
324.634	2.08278
324.849	3.38148
325.064	6.76138
325.279	5.022
325.493	4.54677
325.708	4.79907
325.923	2.44665
326.138	2.98973
326.352	5.54862
326.567	4.68134
326.782	3.02172
326.997	2.73489
327.211	4.16317
327.426	3.813
327.641	3.42496
327.855	2.18184
328.07	4.32635
328.285	5.92384
328.499	3.07727
328.714	4.12117
328.928	4.41238
329.143	3.88069
329.358	5.11161
329.572	4.83539
329.787	5.59415
330.001	7.0013
330.216	1.62458
330.43	6.38434
330.645	5.77979
330.859	4.89585
331.074	2.81096
331.288	3.80467
331.503	5.80329
331.717	2.26881
331.931	3.5467
332.146	4.10259
332.36	5.99357
332.575	4.54078
332.789	3.79096
333.003	3.86854
333.218	4.40442
333.432	3.18633
333.646	4.54494
333.86	5.74443
334.075	5.73207
334.289	3.41047
334.503	2.35584
334.717	4.96939
334.932	4.43584
335.146	5.06244
335.36	3.04739
335.574	4.63643
335.788	4.10153
336.003	5.3425
336.217	4.81241
336.431	4.39362
336.645	3.12208
336.859	2.68951
337.073	3.58751
337.287	4.28697
337.501	2.56198
337.715	4.47097
337.929	4.64467
338.143	2.77954
338.357	3.70349
338.571	2.90736
338.785	4.92771
338.999	3.28277
339.213	3.50603
339.427	2.39681
339.641	4.99185
339.855	3.51629
340.069	2.93443
340.283	5.2148
340.497	6.09327
340.711	4.51475
340.924	3.57608
341.138	2.57367
341.352	2.32774
341.566	4.05596
341.78	2.25054
341.993	3.01531
342.207	2.87488
342.421	4.45912
342.635	3.85321
342.848	3.4795
343.062	1.16636
343.276	3.17414
343.49	6.42424
343.703	3.12905
343.917	4.83607
344.131	4.99511
344.344	2.91805
344.558	3.25433
344.771	2.79809
344.985	5.41814
345.199	5.79541
345.412	3.94082
345.626	4.38936
345.839	2.13826
346.053	2.65189
346.266	2.47327
346.48	4.74477
346.693	4.40512
346.907	4.53458
347.12	2.66079
347.334	4.06609
347.547	4.34076
347.76	3.71355
347.974	5.09995
348.187	4.19655
348.401	3.76294
348.614	3.1632
348.827	3.57026
349.041	4.44768
349.254	1.96972
349.467	3.53331
349.681	2.50472
349.894	2.80494
350.107	5.42621
350.32	6.07359
350.534	2.04534
350.747	3.49994
350.96	2.80758
351.173	2.99165
351.386	3.47865
351.6	3.42753
351.813	3.38016
352.026	3.87053
352.239	2.68968
352.452	3.44697
352.665	5.02357
352.878	3.31824
353.092	6.49628
353.305	4.52084
353.518	4.1417
353.731	2.88595
353.944	5.34879
354.157	3.27882
354.37	3.14928
354.583	2.44677
354.796	2.49079
355.009	5.13943
355.222	4.06867
355.435	4.12444
355.647	5.24752
355.86	3.15373
356.073	3.87495
356.286	3.46083
356.499	5.03797
356.712	4.71471
356.925	4.5913
357.138	5.14493
357.35	2.99844
357.563	3.76619
357.776	4.28294
357.989	3.94338
358.201	4.69476
358.414	4.22148
358.627	5.55596
358.84	4.03698
359.052	3.0179
359.265	2.97086
359.478	5.24278
359.69	1.47396
359.903	4.93881
360.116	5.26855
360.328	2.59386
360.541	5.23717
360.753	3.4768
360.966	3.86861
361.179	4.06049
361.391	3.99403
361.604	3.43911
361.816	3.83269
362.029	3.87386
362.241	3.51292
362.454	3.94837
362.666	3.41023
362.879	4.72189
363.091	4.18655
363.304	3.69961
363.516	4.10533
363.728	3.14761
363.941	4.71617
364.153	4.28955
364.366	2.25116
364.578	3.20659
364.79	4.98922
365.003	4.39134
365.215	4.01254
365.427	4.91553
365.639	5.54447
365.852	4.72486
366.064	6.2811
366.276	3.83935
366.488	4.81166
366.701	4.08287
366.913	4.15344
367.125	3.9224
367.337	3.65214
367.549	3.8017
367.762	4.32103
367.974	4.6019
368.186	3.96298
368.398	5.58869
368.61	4.85183
368.822	5.14225
369.034	4.4346
369.246	5.41944
369.458	7.12873
369.67	3.83973
369.882	6.28247
370.094	2.66169
370.306	6.05213
370.518	4.38537
370.73	3.72987
370.942	4.14301
371.154	4.48069
371.366	4.39469
371.578	5.4036
371.79	4.14642
372.002	5.7982
372.214	6.79612
372.425	4.77013
372.637	6.15508
372.849	4.9076
373.061	2.74362
373.273	5.48316
373.484	5.34721
373.696	5.69288
373.908	2.77047
374.12	5.95953
374.331	5.87231
374.543	4.1689
374.755	3.94225
374.967	5.0784
375.178	6.27705
375.39	5.01217
375.602	5.35182
375.813	3.88328
376.025	3.99168
376.236	5.07595
376.448	5.45664
376.66	5.03988
376.871	5.32124
377.083	6.27035
377.294	6.99321
377.506	4.99332
377.717	6.73259
377.929	5.58677
378.14	5.05692
378.352	5.91033
378.563	6.15441
378.775	6.8119
378.986	4.7024
379.197	5.75011
379.409	4.82927
379.62	6.23508
379.832	5.7822
380.043	5.37671
380.254	5.93463
380.466	4.65227
380.677	8.3859
380.888	7.7676
381.1	8.19259
381.311	8.26628
381.522	6.17522
381.733	8.51843
381.945	5.79678
382.156	5.86593
382.367	5.52957
382.578	8.61306
382.789	9.02259
383.001	5.41959
383.212	7.63548
383.423	7.99548
383.634	7.29798
383.845	6.69414
384.056	5.85381
384.267	6.32028
384.478	6.25917
384.69	5.35031
384.901	7.08247
385.112	6.80094
385.323	7.95249
385.534	6.90754
385.745	7.12784
385.956	6.99
386.167	5.83546
386.378	7.06808
386.588	6.0013
386.799	5.77125
387.01	5.4674
387.221	7.64974
387.432	6.60355
387.643	8.57539
387.854	6.73259
388.065	6.52449
388.275	6.63158
388.486	6.49057
388.697	6.85007
388.908	6.40827
389.119	8.04463
389.329	8.44216
389.54	7.06531
389.751	7.40015
389.962	8.18434
390.172	7.13232
390.383	6.89617
390.594	6.43326
390.804	6.59399
391.015	6.78501
391.226	7.59182
391.436	8.04085
391.647	8.11385
391.858	8.04067
392.068	6.2643
392.279	6.61155
392.489	7.80753
392.7	8.47826
392.91	6.89731
393.121	7.02959
393.331	8.19452
393.542	8.58456
393.752	8.40907
393.963	7.91894
394.173	8.04341
394.384	8.1537
394.594	7.90939
394.804	6.82144
395.015	7.75376
395.225	8.24417
395.436	7.05465
395.646	8.39164
395.856	7.38195
396.067	6.87123
396.277	8.78469
396.487	8.20377
396.697	8.09523
396.908	8.74211
397.118	8.51615
397.328	8.21188
397.538	8.77059
397.749	7.3757
397.959	9.01851
398.169	8.64434
398.379	7.03686
398.589	8.80537
398.8	8.42549
399.01	8.52953
399.22	8.33805
399.43	10.12912
399.64	7.95764
399.85	9.05074
400.06	8.4922
400.27	7.58579
400.48	8.56311
400.69	9.44584
400.9	8.12165
401.11	7.51235
401.32	9.1203
401.53	7.72488
401.74	10.00017
401.95	9.06391
402.16	8.08779
402.37	8.99717
402.58	8.02966
402.79	8.98336
403	9.50142
403.209	8.25087
403.419	9.6268
403.629	8.24429
403.839	9.67472
404.049	9.76442
404.258	8.47146
404.468	8.43316
404.678	9.78875
404.888	9.93878
405.097	8.78807
405.307	9.03585
405.517	9.53325
405.727	9.48945
405.936	8.84785
406.146	9.19973
406.356	10.15264
406.565	9.21689
406.775	8.48873
406.984	8.5188
407.194	10.74861
407.404	9.22236
407.613	9.46898
407.823	9.95608
408.032	10.38142
408.242	9.99388
408.451	8.80771
408.661	8.9282
408.87	10.85776
409.08	8.49079
409.289	9.46936
409.499	9.41271
409.708	9.44963
409.918	7.76585
410.127	9.60366
410.336	10.84966
410.546	10.09724
410.755	9.03635
410.964	9.07161
411.174	8.78943
411.383	9.91407
411.592	9.61838
411.802	8.54711
412.011	9.96128
412.22	9.34553
412.429	10.88687
412.639	10.68532
412.848	10.29608
413.057	10.96672
413.266	10.24108
413.475	9.58142
413.685	10.25314
413.894	10.27865
414.103	10.72113
414.312	10.33593
414.521	9.55112
414.73	10.08482
414.939	11.44864
415.148	10.51602
415.357	10.2127
415.566	9.95282
415.776	9.72059
415.985	9.53532
416.194	10.65771
416.403	11.7843
416.611	9.19972
416.82	9.79551
417.029	10.40323
417.238	9.73894
417.447	9.7717
417.656	10.29099
417.865	9.80441
418.074	10.23598
418.283	10.55533
418.492	11.26492
418.7	11.08262
418.909	11.8872
419.118	10.8433
419.327	11.30052
419.536	10.89346
419.744	10.84349
419.953	12.09147
420.162	12.30562
420.371	11.41361
420.579	12.27088
420.788	13.22087
420.997	13.32599
421.205	13.50422
421.414	13.24032
421.623	12.99561
421.831	12.7965
422.04	13.574
422.249	12.40994
422.457	12.75994
422.666	11.71657
422.874	12.90648
423.083	13.01524
423.291	12.95245
423.5	13.02619
423.708	13.39396
423.917	13.99748
424.125	13.30192
424.334	13.17833
424.542	15.20049
424.751	14.4319
424.959	13.77554
425.167	14.03675
425.376	13.75585
425.584	12.26561
