Data from WindowProjectSample_Transmission__2__00002__008611376730893416.txt Node

Date: Mon May 05 16:23:58 EDT 2025
User: jessi
Spectrometer: SR400872
Trigger mode: 0
Integration Time (sec): 5.000010E-1
Scans to average: 20
Electric dark correction enabled: true
Nonlinearity correction enabled: true
Boxcar width: 0
XAxis mode: Wavelengths
Number of Pixels in Spectrum: 3648
>>>>>Begin Spectral Data<<<<<
184.909	18553.02372
185.132	-4602.42143
185.355	-2767.4995
185.578	-15883.85693
185.801	908.94426
186.024	9247.00424
186.247	-1799.79944
186.47	1167.241
186.693	302.56235
186.916	278.78432
187.139	-3393.65912
187.362	2858.8771
187.585	3738.41506
187.808	3355.67791
188.031	98.55763
188.254	-54267.78287
188.476	-569.21549
188.699	5551.88583
188.922	572.49188
189.145	-13795.34693
189.368	-596.45718
189.591	-1394.40753
189.813	2771.60046
190.036	-43341.32356
190.259	-767.95853
190.482	-4111.33155
190.705	6272.92374
190.927	-2316.87782
191.15	11780.80602
191.373	3014.73526
191.595	-7835.98428
191.818	-3823.93955
192.041	-4603.66675
192.263	-3211.82423
192.486	-712.24612
192.709	-3440.6122
192.931	6967.85141
193.154	-25208.23272
193.377	-2503.44659
193.599	-2282.81271
193.822	-8111.74249
194.044	-1705.31367
194.267	1103.65292
194.489	255.67865
194.712	-39791.09964
194.934	-28957.92834
195.157	1096.11888
195.379	1240.0937
195.602	-6034.30974
195.824	-1173.23988
196.047	-7926.33633
196.269	2481.86964
196.492	-6469.98163
196.714	26195.33756
196.936	-7651.05951
197.159	-1085.02839
197.381	1098.11861
197.604	301.35819
197.826	10266.37283
198.048	-9685.75584
198.271	-2456.19246
198.493	6399.44399
198.715	2127.10747
198.938	-394.08175
199.16	6127.68363
199.382	-92094.73059
199.604	1998.01127
199.827	-930.24078
200.049	-2656.60409
200.271	12266.75138
200.493	1094.67188
200.715	-35195.86359
200.938	-5510.70101
201.16	-3798.67006
201.382	17464.08283
201.604	2157.56903
201.826	2017.00082
202.048	-1665.4231
202.27	-1864.08014
202.492	-33664.53136
202.715	2545.34484
202.937	-3927.75042
203.159	-5763.16401
203.381	1285.93163
203.603	6339.98753
203.825	6409.75536
204.047	1953.74906
204.269	-2530.99153
204.491	1989.9403
204.713	5309.13934
204.935	-453981.75844
205.156	1097.70158
205.378	-2470.69586
205.6	1477.58886
205.822	138603.48961
206.044	-906.79497
206.266	1383.2649
206.488	3784.13101
206.71	-4838.83065
206.932	941.32173
207.153	11372.97401
207.375	-5885.24017
207.597	-34588.92245
207.819	-2533.9105
208.041	2154.33477
208.262	505.91314
208.484	675.93168
208.706	-720.00626
208.927	-797.18747
209.149	545.08885
209.371	-2618.50404
209.593	-291.62747
209.814	-769.61562
210.036	375.59897
210.258	-544.48243
210.479	1674.30866
210.701	1414.41899
210.922	2989.67992
211.144	-3384.74265
211.366	1938.36948
211.587	6400.73937
211.809	-7577.68912
212.03	2172.92409
212.252	446.09206
212.473	1835.95618
212.695	-6085.5968
212.916	2805.87265
213.138	-623.78645
213.359	3265.39681
213.581	4596.96564
213.802	-694.59239
214.024	993.83704
214.245	1890.85261
214.466	2648.14262
214.688	-2823.93875
214.909	-1044.00592
215.131	-1534.83946
215.352	-2849.68154
215.573	13547.5341
215.795	4811.44505
216.016	4897.73774
216.237	672.46251
216.459	3206.0524
216.68	1604.28567
216.901	4501.54317
217.122	-2870.31701
217.344	-10554.98765
217.565	3134.72306
217.786	8290.72441
218.007	13395.55507
218.228	-701.35358
218.45	5030.99955
218.671	619.01308
218.892	33813.50134
219.113	1304.01609
219.334	-121.06163
219.555	9128.4421
219.776	2803.44007
219.997	20536.54002
220.219	2341.34803
220.44	-9682.62026
220.661	421.8911
220.882	1349.51298
221.103	-848.89098
221.324	1897.71713
221.545	2018.66152
221.766	-8253.03585
221.987	836.23552
222.208	1537.58553
222.429	3867.3601
222.65	30.21611
222.87	17301.61833
223.091	674.22233
223.312	506.44029
223.533	1253.05179
223.754	1383.61334
223.975	1235.53138
224.196	1913.88855
224.417	1198.33113
224.637	520.79071
224.858	81.70107
225.079	966.95201
225.3	588.37068
225.521	3512.5858
225.741	432.48042
225.962	462.27732
226.183	123.23186
226.404	598.73157
226.624	388.47595
226.845	553.35455
227.066	373.52441
227.286	214.16856
227.507	109.05359
227.728	104.33551
227.948	211.45914
228.169	66.63603
228.389	72.86047
228.61	43.89675
228.831	55.96332
229.051	2.00086
229.272	32.58827
229.492	51.88128
229.713	10.29124
229.933	32.57979
230.154	30.02093
230.374	49.05215
230.595	35.31454
230.815	19.10251
231.036	35.62123
231.256	-8.8466
231.477	60.10455
231.697	34.17954
231.917	33.87858
232.138	48.63261
232.358	96.7163
232.579	89.91703
232.799	19.30261
233.019	90.28444
233.24	101.78163
233.46	33.68777
233.68	54.43682
233.901	40.42405
234.121	21.08548
234.341	10.28518
234.561	-4.79779
234.782	18.34773
235.002	58.57826
235.222	-4.4421
235.442	58.12945
235.662	27.09019
235.883	54.80753
236.103	46.43586
236.323	35.27037
236.543	25.23675
236.763	37.20585
236.983	39.28399
237.203	37.39554
237.423	52.61096
237.643	77.3767
237.864	66.25427
238.084	15.03368
238.304	22.31397
238.524	39.18716
238.744	37.44507
238.964	63.33948
239.184	53.67855
239.404	58.46563
239.624	31.89076
239.843	53.51979
240.063	34.00236
240.283	19.99852
240.503	23.32031
240.723	22.92512
240.943	12.74413
241.163	17.82494
241.383	13.09653
241.603	5.93915
241.822	8.6994
242.042	5.94306
242.262	7.30362
242.482	8.37359
242.702	9.92223
242.921	2.44001
243.141	6.07364
243.361	5.66962
243.581	8.73841
243.8	6.54472
244.02	4.2744
244.24	8.78184
244.459	8.41705
244.679	16.14149
244.899	10.1657
245.118	11.25818
245.338	10.66874
245.558	13.17456
245.777	7.44236
245.997	8.93684
246.216	9.58617
246.436	5.63613
246.655	4.42628
246.875	2.74251
247.094	5.63887
247.314	1.83997
247.533	3.21242
247.753	4.03949
247.972	3.02908
248.192	1.05679
248.411	1.7277
248.631	3.06616
248.85	4.1836
249.07	3.46823
249.289	5.25978
249.508	4.79707
249.728	6.42119
249.947	6.21609
250.166	8.22399
250.386	3.89981
250.605	5.84092
250.824	9.98757
251.044	6.56121
251.263	26.14037
251.482	12.93494
251.701	10.51647
251.921	-0.19417
252.14	2.80098
252.359	3.36239
252.578	9.16171
252.798	2.61199
253.017	8.33086
253.236	3.38614
253.455	5.13315
253.674	9.28775
253.893	4.25301
254.112	7.02483
254.331	9.92534
254.551	7.51173
254.77	2.76542
254.989	10.72554
255.208	8.13539
255.427	13.31459
255.646	9.35429
255.865	19.95515
256.084	8.31679
256.303	9.87122
256.522	12.34138
256.741	2.57961
256.96	2.2203
257.179	7.38458
257.397	9.76933
257.616	5.32683
257.835	5.16906
258.054	13.76127
258.273	9.57854
258.492	9.71734
258.711	6.49975
258.93	2.79038
259.148	4.06472
259.367	4.21875
259.586	5.06371
259.805	2.02859
260.023	4.67529
260.242	3.47444
260.461	2.44336
260.68	1.0979
260.898	4.0039
261.117	1.33356
261.336	0.72203
261.554	3.18658
261.773	3.23751
261.992	0.53573
262.21	2.77628
262.429	3.35212
262.648	7.01886
262.866	7.4145
263.085	4.79923
263.303	4.21232
263.522	7.46825
263.74	7.8636
263.959	13.70203
264.178	6.097
264.396	5.81221
264.615	4.17633
264.833	9.28446
265.051	7.77734
265.27	9.87565
265.488	10.45164
265.707	5.52824
265.925	9.80343
266.144	4.59179
266.362	5.16199
266.58	5.04124
266.799	4.52666
267.017	5.52037
267.235	4.65914
267.454	2.87116
267.672	1.78446
267.89	3.75928
268.109	3.83673
268.327	3.9322
268.545	0.77959
268.763	3.59249
268.982	1.3095
269.2	3.64642
269.418	2.78545
269.636	1.70589
269.854	4.19309
270.073	2.84343
270.291	1.6838
270.509	1.36727
270.727	3.82333
270.945	6.34271
271.163	6.41747
271.381	1.00857
271.599	3.00344
271.817	4.7842
272.036	1.66326
272.254	2.78546
272.472	2.19651
272.69	2.27983
272.908	2.03968
273.126	4.06746
273.344	4.6655
273.562	1.65353
273.779	2.36204
273.997	3.25262
274.215	3.69721
274.433	2.72504
274.651	3.96327
274.869	4.32124
275.087	2.62086
275.305	3.6386
275.523	2.3153
275.74	2.52292
275.958	4.8495
276.176	7.49902
276.394	2.35688
276.612	2.96853
276.829	3.04529
277.047	2.30425
277.265	2.76139
277.483	3.11877
277.7	3.87793
277.918	3.07539
278.136	5.60865
278.353	2.71588
278.571	1.7399
278.789	3.7617
279.006	0.78616
279.224	2.80642
279.442	4.55307
279.659	3.35724
279.877	2.15043
280.094	5.40335
280.312	0.84224
280.529	3.03517
280.747	0.84123
280.964	2.22522
281.182	5.47732
281.399	2.4668
281.617	3.5214
281.834	2.47372
282.052	1.83421
282.269	2.87149
282.487	2.21181
282.704	1.85207
282.921	1.97362
283.139	2.99801
283.356	3.5773
283.574	3.44999
283.791	1.71238
284.008	5.14943
284.226	2.50501
284.443	2.96657
284.66	4.06357
284.877	3.07813
285.095	1.75127
285.312	1.51427
285.529	0.69384
285.746	0.75684
285.964	1.87283
286.181	1.28851
286.398	1.6174
286.615	2.31675
286.832	2.3454
287.05	0.54227
287.267	1.55015
287.484	1.65547
287.701	2.35572
287.918	2.27409
288.135	2.18852
288.352	1.14042
288.569	1.31557
288.786	2.10371
289.003	1.77981
289.22	2.70126
289.437	1.37059
289.654	2.66681
289.871	2.73528
290.088	2.66782
290.305	1.98435
290.522	1.49995
290.739	1.849
290.956	2.83954
291.173	3.11916
291.39	3.14217
291.607	2.13304
291.824	1.45967
292.04	1.10086
292.257	2.67737
292.474	2.85641
292.691	1.69707
292.908	0.77581
293.125	1.66177
293.341	0.99332
293.558	4.45902
293.775	1.70133
293.992	1.861
294.208	0.74874
294.425	1.1691
294.642	1.66511
294.858	2.72613
295.075	0.69625
295.292	1.73249
295.508	2.05095
295.725	3.75119
295.942	1.44251
296.158	1.06055
296.375	1.85725
296.591	1.41103
296.808	1.5491
297.024	1.75035
297.241	1.99412
297.458	2.22014
297.674	0.20788
297.891	1.7234
298.107	1.40211
298.323	1.06093
298.54	2.94487
298.756	1.29004
298.973	0.67252
299.189	2.91096
299.406	1.24567
299.622	2.64811
299.838	2.50957
300.055	2.64869
300.271	0.64204
300.487	1.08464
300.704	1.37212
300.92	0.73807
301.136	3.94159
301.353	2.54818
301.569	1.73942
301.785	2.19816
302.001	2.62766
302.218	2.24696
302.434	2.33523
302.65	0.92501
302.866	1.50814
303.083	3.81289
303.299	3.70172
303.515	2.07281
303.731	2.06334
303.947	0.83492
304.163	1.4536
304.379	2.18552
304.595	2.41713
304.812	1.38754
305.028	1.44949
305.244	1.80894
305.46	2.73196
305.676	2.67472
305.892	3.11246
306.108	2.46141
306.324	1.52716
306.54	3.55975
306.756	2.46467
306.972	2.36782
307.187	1.90529
307.403	3.15712
307.619	1.59998
307.835	3.01948
308.051	3.40503
308.267	1.24487
308.483	3.0425
308.699	2.54548
308.914	1.97058
309.13	1.85992
309.346	0.91896
309.562	1.25624
309.778	0.96568
309.993	2.43159
310.209	2.0975
310.425	1.08979
310.641	1.93002
310.856	1.25249
311.072	1.14378
311.288	1.93885
311.503	2.11391
311.719	0.72305
311.935	0.50015
312.15	2.42574
312.366	1.9803
312.581	2.44252
312.797	1.93603
313.013	2.70298
313.228	1.48767
313.444	1.94407
313.659	1.40999
313.875	2.50073
314.09	1.93212
314.306	3.1151
314.521	2.68656
314.737	2.64045
314.952	2.08366
315.168	1.91254
315.383	2.34637
315.599	1.7961
315.814	1.55676
316.029	2.52137
316.245	1.00633
316.46	0.61344
316.675	3.11684
316.891	3.49438
317.106	4.49913
317.321	2.25319
317.537	2.57336
317.752	2.82913
317.967	2.83911
318.183	1.31911
318.398	1.62903
318.613	2.77429
318.828	3.18971
319.043	2.80833
319.259	1.86244
319.474	2.33627
319.689	3.0454
319.904	0.60108
320.119	2.66811
320.334	2.23353
320.549	1.8055
320.765	2.98385
320.98	2.36298
321.195	2.56441
321.41	1.97997
321.625	2.66384
321.84	3.53073
322.055	3.52361
322.27	1.52302
322.485	1.26928
322.7	2.31796
322.915	2.60842
323.13	1.42099
323.345	3.36775
323.56	2.68342
323.775	2.72074
323.989	2.30395
324.204	2.22934
324.419	3.10841
324.634	1.13637
324.849	2.06033
325.064	4.97476
325.279	2.87165
325.493	2.49264
325.708	2.76723
325.923	1.416
326.138	1.67244
326.352	3.56003
326.567	2.97758
326.782	1.74274
326.997	1.58641
327.211	2.56483
327.426	2.46983
327.641	1.71993
327.855	0.89541
328.07	2.46681
328.285	3.58358
328.499	1.84092
328.714	2.39705
328.928	2.68496
329.143	1.94816
329.358	2.96474
329.572	3.03614
329.787	3.23954
330.001	4.14718
330.216	1.23068
330.43	3.83312
330.645	3.35218
330.859	2.8683
331.074	1.5962
331.288	2.31129
331.503	3.23668
331.717	1.41007
331.931	2.386
332.146	2.32998
332.36	3.7196
332.575	2.51847
332.789	2.35011
333.003	2.46923
333.218	2.70187
333.432	1.57162
333.646	2.92999
333.86	3.48997
334.075	3.55047
334.289	1.96696
334.503	1.3625
334.717	2.4431
334.932	2.51654
335.146	3.2592
335.36	1.87021
335.574	2.75763
335.788	2.53745
336.003	3.06288
336.217	2.78064
336.431	2.68579
336.645	1.68393
336.859	1.26647
337.073	2.21135
337.287	2.48168
337.501	1.30883
337.715	2.56036
337.929	2.95869
338.143	1.28176
338.357	1.98722
338.571	1.58064
338.785	2.56392
338.999	1.98799
339.213	1.88283
339.427	1.16782
339.641	3.33375
339.855	1.93934
340.069	1.65227
340.283	2.81852
340.497	3.72566
340.711	2.55251
340.924	2.22258
341.138	1.33179
341.352	1.1601
341.566	2.43095
341.78	1.06211
341.993	1.8549
342.207	1.51144
342.421	2.3371
342.635	2.13909
342.848	1.89234
343.062	0.62064
343.276	1.6218
343.49	3.80069
343.703	1.71598
343.917	3.06322
344.131	3.00849
344.344	1.68128
344.558	1.99007
344.771	1.17168
344.985	3.47407
345.199	3.47453
345.412	2.38612
345.626	2.51672
345.839	1.05964
346.053	1.3501
346.266	1.39618
346.48	2.77326
346.693	2.45928
346.907	2.39945
347.12	1.50856
347.334	2.33936
347.547	2.4935
347.76	2.00284
347.974	2.98368
348.187	2.52485
348.401	1.95831
348.614	1.64465
348.827	1.88467
349.041	2.54653
349.254	0.9281
349.467	1.95541
349.681	1.26062
349.894	1.64146
350.107	3.03833
350.32	3.61244
350.534	1.10202
350.747	1.80466
350.96	1.54084
351.173	1.74116
351.386	1.9395
351.6	1.7903
351.813	1.92009
352.026	2.01577
352.239	1.24078
352.452	1.99361
352.665	2.83201
352.878	2.07345
353.092	3.59589
353.305	2.75854
353.518	2.40286
353.731	1.50292
353.944	3.07378
354.157	1.74551
354.37	1.5546
354.583	1.53843
354.796	1.0576
355.009	2.84457
355.222	2.38344
355.435	2.18751
355.647	2.82808
355.86	1.51121
356.073	2.27758
356.286	1.83233
356.499	2.63696
356.712	2.39814
356.925	2.57555
357.138	2.78267
357.35	1.53031
357.563	1.90963
357.776	2.19789
357.989	1.95092
358.201	2.44913
358.414	2.30471
358.627	3.15791
358.84	1.98007
359.052	1.30069
359.265	1.62034
359.478	2.83289
359.69	0.44231
359.903	2.63527
360.116	2.84267
360.328	1.10025
360.541	2.74343
360.753	1.58504
360.966	1.8773
361.179	1.96106
361.391	1.84419
361.604	1.46854
361.816	1.90199
362.029	1.75088
362.241	1.56274
362.454	1.77315
362.666	1.49674
362.879	2.27823
363.091	1.871
363.304	1.65648
363.516	2.02187
363.728	1.48145
363.941	2.51427
364.153	2.00398
364.366	0.91673
364.578	1.34062
364.79	2.32213
365.003	2.12011
365.215	1.70287
365.427	2.51094
365.639	2.89142
365.852	2.22068
366.064	3.74287
366.276	2.01108
366.488	2.46798
366.701	1.94514
366.913	2.15588
367.125	2.07045
367.337	1.67795
367.549	1.83071
367.762	2.30806
367.974	2.18417
368.186	1.80542
368.398	2.80972
368.61	2.66027
368.822	2.76456
369.034	2.10428
369.246	2.75255
369.458	4.23814
369.67	1.7628
369.882	3.51807
370.094	1.09067
370.306	3.38227
370.518	2.09605
370.73	1.84809
370.942	1.93045
371.154	2.29878
371.366	2.03779
371.578	2.53309
371.79	2.01893
372.002	3.13943
372.214	3.68535
372.425	2.39252
372.637	3.26955
372.849	2.65157
373.061	1.15042
373.273	2.67958
373.484	2.6141
373.696	2.99546
373.908	1.15317
374.12	3.17606
374.331	2.76661
374.543	1.9978
374.755	1.91923
374.967	2.57294
375.178	2.9643
375.39	2.25504
375.602	2.57428
375.813	1.62572
376.025	1.80707
376.236	2.58113
376.448	2.71533
376.66	2.22024
376.871	2.31672
377.083	3.4112
377.294	3.49832
377.506	2.30979
377.717	3.48768
377.929	2.82895
378.14	2.25761
378.352	2.83312
378.563	2.94751
378.775	3.5203
378.986	2.02141
379.197	2.78218
379.409	2.19776
379.62	3.13964
379.832	3.0234
380.043	2.62035
380.254	2.86578
380.466	2.14519
380.677	4.54676
380.888	4.02486
381.1	4.29085
381.311	4.43881
381.522	2.79462
381.733	4.708
381.945	2.6978
382.156	2.86357
382.367	2.50607
382.578	4.59289
382.789	4.64975
383.001	2.5953
383.212	3.91607
383.423	4.01224
383.634	3.77792
383.845	3.3352
384.056	2.78122
384.267	3.18865
384.478	3.02441
384.69	2.35495
384.901	3.27297
385.112	3.2633
385.323	4.08411
385.534	3.4268
385.745	3.37551
385.956	3.22375
386.167	2.59357
386.378	3.46417
386.588	2.63101
386.799	2.76226
387.01	2.24478
387.221	3.74857
387.432	3.27846
387.643	4.32876
387.854	3.12651
388.065	3.04114
388.275	3.23452
388.486	2.95848
388.697	3.17465
388.908	3.01266
389.119	4.01058
389.329	4.22436
389.54	3.38771
389.751	3.58549
389.962	4.1538
390.172	3.50586
390.383	3.18528
390.594	3.03886
390.804	3.1117
391.015	3.0904
391.226	3.60355
391.436	3.83129
391.647	3.76382
391.858	3.88648
392.068	2.60932
392.279	2.90349
392.489	3.72037
392.7	4.21077
392.91	3.2031
393.121	3.12491
393.331	3.92079
393.542	4.33475
393.752	3.83107
393.963	3.8944
394.173	3.85235
394.384	3.93651
394.594	3.76318
394.804	3.09957
395.015	3.87028
395.225	4.05747
395.436	3.26518
395.646	4.06943
395.856	3.56817
396.067	3.00898
396.277	4.25192
396.487	4.0635
396.697	4.05022
396.908	4.16649
397.118	4.18115
397.328	3.99393
397.538	4.37321
397.749	3.41096
397.959	4.43044
398.169	4.2499
398.379	3.23164
398.589	4.25906
398.8	4.12432
399.01	4.06555
399.22	3.7863
399.43	5.27721
399.64	3.92993
399.85	4.40399
400.06	4.13148
400.27	3.54918
400.48	4.00038
400.69	4.94981
400.9	3.83961
401.11	3.49534
401.32	4.58593
401.53	3.98415
401.74	5.0323
401.95	4.50866
402.16	3.70733
402.37	4.29222
402.58	3.86756
402.79	4.53531
403	4.87579
403.209	3.86012
403.419	4.91124
403.629	3.81667
403.839	4.86443
404.049	4.83592
404.258	4.09783
404.468	3.92092
404.678	4.69362
404.888	5.05967
405.097	4.10334
405.307	4.33832
405.517	4.75298
405.727	4.59682
405.936	4.24988
406.146	4.51604
406.356	5.14585
406.565	4.42749
406.775	4.25498
406.984	4.22247
407.194	5.53365
407.404	4.46425
407.613	4.84916
407.823	4.94493
408.032	5.14
408.242	5.13357
408.451	4.22902
408.661	4.52483
408.87	5.60713
409.08	4.06464
409.289	4.78867
409.499	4.82922
409.708	4.69317
409.918	3.61061
410.127	4.70812
410.336	5.5341
410.546	5.16613
410.755	4.49124
410.964	4.56961
411.174	4.27127
411.383	4.95997
411.592	4.96162
411.802	4.21979
412.011	5.14031
412.22	4.56971
412.429	5.77936
412.639	5.60627
412.848	5.3148
413.057	5.57985
413.266	5.51728
413.475	4.82656
413.685	5.17491
413.894	5.56451
414.103	5.60029
414.312	5.34539
414.521	4.85442
414.73	5.0467
414.939	6.28379
415.148	5.21386
415.357	5.20987
415.566	4.92868
415.776	4.92579
415.985	4.99112
416.194	5.61873
416.403	6.28781
416.611	4.6027
416.82	5.12684
417.029	5.35755
417.238	5.07548
417.447	4.92802
417.656	5.25373
417.865	5.01361
418.074	5.34728
418.283	5.46875
418.492	6.04226
418.7	5.83028
418.909	6.6344
419.118	5.92639
419.327	6.3225
419.536	6.13178
419.744	6.06252
419.953	7.03712
420.162	7.21097
420.371	6.69515
420.579	6.96752
420.788	7.74797
420.997	7.75842
421.205	8.08322
421.414	7.84676
421.623	7.90931
421.831	7.66454
422.04	8.041
422.249	7.41575
422.457	7.7891
422.666	7.12392
422.874	7.82378
423.083	7.89805
423.291	7.92267
423.5	7.77418
423.708	8.03374
423.917	8.43964
424.125	8.03953
424.334	7.94791
424.542	9.32043
424.751	8.83885
424.959	8.55884
425.167	8.8147
425.376	8.53722
425.584	7.69774
425.793	7.66512
426.001	6.91084
426.209	7.14476
426.418	6.25372
426.626	6.09097
426.834	5.98164
427.042	6.30407
427.251	5.93871
427.459	6.68917
