Data from WindowProjectSample3_Transmission__2__00002.txt Node

Date: Sun May 04 09:39:04 EDT 2025
User: jessi
Spectrometer: SR400872
Trigger mode: 0
Integration Time (sec): 5.000070E-1
Scans to average: 20
Electric dark correction enabled: true
Nonlinearity correction enabled: true
Boxcar width: 0
XAxis mode: Wavelengths
Number of Pixels in Spectrum: 3648
>>>>>Begin Spectral Data<<<<<
184.909	-5726.15173
185.132	11033.68365
185.355	-8366.41573
185.578	-52777.1525
185.801	3914.15007
186.024	-131949.70735
186.247	-769.84079
186.47	1401.85229
186.693	1175.91974
186.916	-561.06385
187.139	-2493492.58643
187.362	-3030.20537
187.585	7975.17204
187.808	1943.99198
188.031	-178.87946
188.254	5126.79436
188.476	-1525.11412
188.699	2429.84847
188.922	479.61793
189.145	-5854.05331
189.368	-4162.13649
189.591	1740.15482
189.813	-142289.64208
190.036	8777.4418
190.259	1538.28062
190.482	5943.714
190.705	16930.98622
190.927	17510.66537
191.15	-3951.31972
191.373	1988.70772
191.595	1556.41414
191.818	17699.69633
192.041	945.85543
192.263	-7786.90617
192.486	-1651.59482
192.709	2909.38555
192.931	-3445.35859
193.154	13177.72785
193.377	2670.41692
193.599	26655.31962
193.822	2294.01498
194.044	2102.78828
194.267	1072.34218
194.489	-226.67576
194.712	3686.5109
194.934	33396.39394
195.157	-568.32885
195.379	11441.01968
195.602	1801.32705
195.824	4478.41941
196.047	6696.49424
196.269	13886.87136
196.492	-11197.07572
196.714	3894.70187
196.936	7046.31418
197.159	11111.3067
197.381	4249.14182
197.604	1669993.77822
197.826	1927.18233
198.048	2187.68909
198.271	9524.94886
198.493	2016.26702
198.715	2752.3208
198.938	8085.76706
199.16	3397.15206
199.382	9890.64897
199.604	9806.48756
199.827	1811.71356
200.049	2855.09109
200.271	19907.96923
200.493	1774.5914
200.715	7396.80282
200.938	7824.29442
201.16	-3726.30156
201.382	32402.62542
201.604	4156.95109
201.826	8516.18429
202.048	4668.4563
202.27	1788.68794
202.492	5966.23155
202.715	19240.83166
202.937	3904.62714
203.159	1509.17564
203.381	2096.20923
203.603	2817.30187
203.825	-1445.37575
204.047	-22660.30683
204.269	3479.74372
204.491	7040.14664
204.713	-1719002.24268
204.935	2305.64183
205.156	4032.89073
205.378	1662.39568
205.6	37016.94507
205.822	4778.16773
206.044	3498.20629
206.266	5924.57738
206.488	1515.65102
206.71	9153.63295
206.932	1508.28975
207.153	27735.24526
207.375	16194.06329
207.597	12200.19679
207.819	39999.36539
208.041	-45209.63709
208.262	1219.97328
208.484	13346.40783
208.706	3806.38747
208.927	2390.18266
209.149	842.4224
209.371	3671.02281
209.593	1055.681
209.814	10334.22058
210.036	-481226.77939
210.258	1563.3536
210.479	2346.84512
210.701	3301.56497
210.922	-5452.32699
211.144	-3132.94125
211.366	5022.48493
211.587	2717.61799
211.809	5995.77224
212.03	-66418.26194
212.252	523.14398
212.473	939.66857
212.695	722.76022
212.916	1266.0194
213.138	613.13525
213.359	5161.13773
213.581	2976.20458
213.802	859.35194
214.024	7587.70174
214.245	-13419.37662
214.466	485.88813
214.688	3872.07553
214.909	10180.478
215.131	4279.20613
215.352	2572.69073
215.573	11783.98055
215.795	2167.86016
216.016	2012.79167
216.237	-737224.32261
216.459	2050.24692
216.68	5514.26372
216.901	3184.57519
217.122	790.21821
217.344	2960.80727
217.565	7183.33025
217.786	3640.91209
218.007	895.76261
218.228	2540.65084
218.45	-17223.09563
218.671	49140.44603
218.892	18531.46595
219.113	1702.86418
219.334	6407.57283
219.555	-8598.53499
219.776	1821.11759
219.997	3953.51226
220.219	1179.54629
220.44	1493.68326
220.661	1536.59371
220.882	5916.27936
221.103	1430.05975
221.324	7868.95805
221.545	3188.79195
221.766	3008.39643
221.987	1535.91078
222.208	963.55284
222.429	2270.00178
222.65	150.14073
222.87	792.04229
223.091	1707.29272
223.312	1096.02537
223.533	2006.94253
223.754	1588.54608
223.975	1719.31154
224.196	1034.72261
224.417	5114.33038
224.637	616.38505
224.858	110.86068
225.079	1187.50854
225.3	658.58729
225.521	2308.04987
225.741	578.79641
225.962	599.63353
226.183	192.17379
226.404	1040.40951
226.624	557.34408
226.845	631.39897
227.066	464.74867
227.286	313.64014
227.507	187.02447
227.728	149.41493
227.948	269.94398
228.169	92.62979
228.389	101.15811
228.61	58.60245
228.831	76.51529
229.051	8.89014
229.272	50.39322
229.492	74.41119
229.713	19.76176
229.933	52.05858
230.154	45.89108
230.374	75.15735
230.595	58.82883
230.815	33.82372
231.036	58.86976
231.256	-11.23233
231.477	97.85814
231.697	58.34624
231.917	65.49461
232.138	84.34858
232.358	157.84887
232.579	150.77632
232.799	22.54696
233.019	133.9946
233.24	160.30743
233.46	64.02648
233.68	87.77396
233.901	56.98582
234.121	43.86446
234.341	19.1243
234.561	-6.27827
234.782	32.78446
235.002	98.95965
235.222	-0.72968
235.442	90.77056
235.662	45.16825
235.883	90.22648
236.103	74.59391
236.323	50.76183
236.543	41.58691
236.763	59.39762
236.983	65.19966
237.203	63.0994
237.423	85.37867
237.643	125.98025
237.864	109.42264
238.084	33.6465
238.304	39.49441
238.524	65.52233
238.744	58.35986
238.964	97.8047
239.184	82.23813
239.404	97.51707
239.624	49.87933
239.843	82.61732
240.063	49.72256
240.283	30.13501
240.503	35.34908
240.723	34.949
240.943	21.85685
241.163	27.82144
241.383	19.17711
241.603	10.42351
241.822	12.82321
242.042	8.85271
242.262	12.29958
242.482	13.36212
242.702	15.70882
242.921	4.88235
243.141	10.64046
243.361	9.48059
243.581	14.15567
243.8	11.61577
244.02	8.32624
244.24	14.42459
244.459	14.02621
244.679	28.91829
244.899	18.86492
245.118	21.30422
245.338	19.88899
245.558	20.86997
245.777	12.82942
245.997	14.20939
246.216	14.39469
246.436	8.50327
246.655	5.98636
246.875	4.69498
247.094	8.84575
247.314	3.59407
247.533	5.53888
247.753	6.15245
247.972	5.63378
248.192	1.86226
248.411	2.97127
248.631	5.50361
248.85	7.17869
249.07	6.54566
249.289	9.79073
249.508	7.16153
249.728	10.86895
249.947	11.33938
250.166	14.06452
250.386	7.52826
250.605	10.94509
250.824	17.73389
251.044	11.83692
251.263	35.41983
251.482	21.02041
251.701	17.43745
251.921	0.05828
252.14	6.42083
252.359	6.67385
252.578	14.62915
252.798	5.9076
253.017	13.48794
253.236	6.70353
253.455	9.41837
253.674	17.96837
253.893	8.37454
254.112	13.12387
254.331	18.2565
254.551	15.13372
254.77	7.44395
254.989	21.46147
255.208	15.74521
255.427	24.32941
255.646	20.75488
255.865	32.04816
256.084	14.45106
256.303	17.21622
256.522	20.97576
256.741	3.56883
256.96	5.6456
257.179	13.4068
257.397	16.01503
257.616	9.63893
257.835	9.77957
258.054	22.24789
258.273	15.5946
258.492	15.91328
258.711	9.67447
258.93	4.71132
259.148	6.80694
259.367	5.96329
259.586	7.99475
259.805	3.43769
260.023	6.95748
260.242	5.47393
260.461	4.39421
260.68	2.25572
260.898	6.51008
261.117	2.33314
261.336	1.37025
261.554	5.75399
261.773	5.80858
261.992	1.55057
262.21	5.43846
262.429	6.62391
262.648	10.45305
262.866	12.22263
263.085	9.17111
263.303	7.34217
263.522	13.413
263.74	13.10951
263.959	22.91718
264.178	12.25705
264.396	9.43925
264.615	7.87529
264.833	16.76113
265.051	14.07641
265.27	15.64758
265.488	15.87771
265.707	9.50877
265.925	15.28207
266.144	7.18722
266.362	8.43334
266.58	8.96602
266.799	7.07511
267.017	9.07042
267.235	7.36894
267.454	5.00619
267.672	2.83247
267.89	6.80195
268.109	6.81779
268.327	6.99328
268.545	1.63653
268.763	6.22095
268.982	3.16099
269.2	7.38785
269.418	4.37804
269.636	3.86441
269.854	7.09058
270.073	5.10545
270.291	3.01582
270.509	2.92304
270.727	6.66411
270.945	10.73001
271.163	10.28423
271.381	2.47295
271.599	4.80262
271.817	7.67354
272.036	2.87031
272.254	4.96904
272.472	3.608
272.69	3.78931
272.908	4.00341
273.126	6.18333
273.344	7.85726
273.562	2.83245
273.779	4.35769
273.997	6.3076
274.215	6.38709
274.433	4.54485
274.651	7.03545
274.869	7.08175
275.087	4.51452
275.305	6.31154
275.523	4.16757
275.74	4.71563
275.958	8.16261
276.176	11.81642
276.394	4.04652
276.612	4.9634
276.829	5.21113
277.047	4.52851
277.265	4.4905
277.483	5.31383
277.7	6.17571
277.918	4.90222
278.136	9.25606
278.353	4.74383
278.571	2.94856
278.789	7.03523
279.006	1.72138
279.224	4.21202
279.442	7.35069
279.659	5.56645
279.877	3.74254
280.094	8.20015
280.312	2.12506
280.529	5.54297
280.747	1.846
280.964	4.29048
281.182	8.72103
281.399	4.23277
281.617	5.41117
281.834	3.84498
282.052	3.14184
282.269	4.89605
282.487	3.893
282.704	3.44751
282.921	3.22896
283.139	5.09457
283.356	6.27901
283.574	5.84689
283.791	3.05552
284.008	7.80663
284.226	4.83781
284.443	5.03077
284.66	6.19122
284.877	5.20113
285.095	3.10986
285.312	2.38879
285.529	1.61087
285.746	1.25591
285.964	3.16249
286.181	2.20933
286.398	2.90898
286.615	4.16972
286.832	3.93271
287.05	1.07465
287.267	2.92244
287.484	2.91266
287.701	4.08953
287.918	4.01112
288.135	4.26272
288.352	1.76616
288.569	2.32795
288.786	3.72405
289.003	2.9742
289.22	4.45975
289.437	2.56598
289.654	4.52477
289.871	4.52134
290.088	4.41691
290.305	3.37576
290.522	2.69175
290.739	3.17405
290.956	4.76369
291.173	5.54749
291.39	5.27894
291.607	3.59232
291.824	3.10247
292.04	2.03945
292.257	4.64387
292.474	5.11222
292.691	3.46245
292.908	1.85619
293.125	2.81731
293.341	1.97751
293.558	7.63362
293.775	3.26343
293.992	3.45317
294.208	1.56136
294.425	2.70914
294.642	3.15184
294.858	4.77813
295.075	1.64667
295.292	3.34593
295.508	4.21235
295.725	6.17638
295.942	3.51918
296.158	2.93065
296.375	4.21798
296.591	3.52834
296.808	3.7082
297.024	4.26881
297.241	4.69851
297.458	4.92629
297.674	2.09175
297.891	4.287
298.107	4.20305
298.323	3.34668
298.54	6.1783
298.756	4.08985
298.973	2.95924
299.189	6.69226
299.406	4.0956
299.622	6.57694
299.838	6.70324
300.055	6.06392
300.271	3.36917
300.487	3.93927
300.704	4.48044
300.92	3.81601
301.136	8.5398
301.353	6.89726
301.569	5.64111
301.785	6.07068
302.001	6.89326
302.218	6.48748
302.434	6.6125
302.65	4.15922
302.866	5.17441
303.083	9.09388
303.299	9.15273
303.515	6.08811
303.731	6.7778
303.947	4.53473
304.163	5.59806
304.379	6.45249
304.595	6.93992
304.812	5.38226
305.028	5.29152
305.244	5.92796
305.46	7.32691
305.676	7.54933
305.892	8.52194
306.108	7.38578
306.324	6.52129
306.54	9.13172
306.756	7.28156
306.972	7.18069
307.187	6.53228
307.403	8.64204
307.619	6.10727
307.835	8.21706
308.051	8.6282
308.267	5.49499
308.483	8.61208
308.699	7.59596
308.914	7.21895
309.13	7.00555
309.346	5.3611
309.562	5.99444
309.778	5.43637
309.993	7.93974
310.209	7.48851
310.425	5.77106
310.641	7.14031
310.856	6.19214
311.072	6.13713
311.288	7.39863
311.503	8.1121
311.719	5.45008
311.935	5.56499
312.15	8.35769
312.366	8.00382
312.581	8.30813
312.797	7.75004
313.013	8.65721
313.228	6.82996
313.444	7.27289
313.659	6.43639
313.875	8.30336
314.09	7.47167
314.306	9.3128
314.521	8.76913
314.737	8.5446
314.952	7.94925
315.168	7.94692
315.383	8.28698
315.599	7.35862
315.814	7.4022
316.029	8.55228
316.245	6.48392
316.46	5.37277
316.675	9.3161
316.891	10.22005
317.106	11.98726
317.321	8.25257
317.537	8.76532
317.752	8.91855
317.967	8.90071
318.183	6.71849
318.398	7.54712
318.613	9.29712
318.828	9.81823
319.043	9.158
319.259	7.71348
319.474	8.36743
319.689	9.47604
319.904	5.51122
320.119	9.39723
320.334	8.3349
320.549	7.77051
320.765	9.76452
320.98	8.5682
321.195	8.76149
321.41	7.82705
321.625	9.0796
321.84	10.42874
322.055	10.24101
322.27	7.11527
322.485	6.71417
322.7	8.91471
322.915	9.48774
323.13	7.54379
323.345	10.51485
323.56	9.66795
323.775	9.44477
323.989	9.16816
324.204	8.85176
324.419	9.81359
324.634	7.01497
324.849	8.33696
325.064	11.93838
325.279	10.09821
325.493	9.19965
325.708	9.8998
325.923	7.73203
326.138	8.26538
326.352	10.85197
326.567	9.90091
326.782	8.14357
326.997	8.06521
327.211	9.78375
327.426	9.23695
327.641	8.46869
327.855	6.61271
328.07	9.7571
328.285	11.43209
328.499	8.4466
328.714	9.14112
328.928	9.55498
329.143	8.85179
329.358	10.4149
329.572	10.40843
329.787	11.06952
330.001	12.43093
330.216	7.05981
330.43	11.64439
330.645	10.70296
330.859	10.11096
331.074	7.55125
331.288	9.20612
331.503	11.36864
331.717	7.48071
331.931	8.97653
332.146	9.35026
332.36	11.88731
332.575	9.70916
332.789	9.39403
333.003	9.50366
333.218	10.01652
333.432	8.57334
333.646	10.42148
333.86	11.61018
334.075	11.47353
334.289	8.61074
334.503	7.59021
334.717	10.50764
334.932	9.6879
335.146	10.62365
335.36	8.62397
335.574	10.54028
335.788	10.21852
336.003	10.90538
336.217	10.89056
336.431	9.98922
336.645	8.70295
336.859	7.84283
337.073	9.14865
337.287	9.70506
337.501	7.88111
337.715	10.25175
337.929	10.09374
338.143	8.13922
338.357	9.2725
338.571	8.79478
338.785	10.91773
338.999	9.14967
339.213	9.045
339.427	8.33956
339.641	11.32532
339.855	9.20055
340.069	8.77042
340.283	11.04482
340.497	11.86238
340.711	10.58874
340.924	9.87067
341.138	8.66273
341.352	8.06988
341.566	9.90818
341.78	8.06636
341.993	9.19768
342.207	8.80052
342.421	10.19917
342.635	9.68982
342.848	9.22364
343.062	6.98652
343.276	9.15881
343.49	12.44246
343.703	8.89224
343.917	11.03825
344.131	11.38826
344.344	9.01598
344.558	9.50593
344.771	8.57167
344.985	11.6035
345.199	12.35332
345.412	10.52568
345.626	10.80661
345.839	8.08439
346.053	8.79868
346.266	9.22931
346.48	10.94364
346.693	10.64207
346.907	10.6422
347.12	8.85907
347.334	10.28468
347.547	10.46888
347.76	10.03855
347.974	11.67418
348.187	10.34003
348.401	9.68056
348.614	8.97072
348.827	9.6433
349.041	10.65334
349.254	8.04578
349.467	9.6083
349.681	9.13897
349.894	8.89348
350.107	11.45352
350.32	12.55299
350.534	8.35176
350.747	9.95269
350.96	9.28393
351.173	9.14203
351.386	9.45132
351.6	9.52813
351.813	9.58731
352.026	9.94039
352.239	8.73705
352.452	9.38076
352.665	11.61872
352.878	9.71743
353.092	12.68424
353.305	11.22836
353.518	10.34027
353.731	9.01281
353.944	11.35161
354.157	9.99852
354.37	9.75908
354.583	8.74935
354.796	8.81757
355.009	11.73131
355.222	10.49933
355.435	10.3754
355.647	11.7927
355.86	9.6348
356.073	10.59824
356.286	9.94642
356.499	11.74799
356.712	11.53264
356.925	11.29204
357.138	11.95404
357.35	9.80801
357.563	10.36629
357.776	11.00166
357.989	11.04499
358.201	11.53187
358.414	11.51379
358.627	12.22842
358.84	10.60823
359.052	9.63611
359.265	9.90365
359.478	11.94014
359.69	8.186
359.903	11.87185
360.116	12.14309
360.328	9.2318
360.541	11.79359
360.753	10.39511
360.966	10.76918
361.179	11.076
361.391	10.67633
361.604	10.35551
361.816	10.87459
362.029	11.02657
362.241	10.45594
362.454	11.17114
362.666	10.36774
362.879	11.88818
363.091	11.02355
363.304	10.73372
363.516	10.88504
363.728	9.94125
363.941	11.5392
364.153	11.2057
364.366	8.87736
364.578	10.03711
364.79	11.54842
365.003	11.37936
365.215	10.61213
365.427	11.59747
365.639	12.1676
365.852	11.40204
366.064	12.73163
366.276	10.91212
366.488	11.4385
366.701	10.80411
366.913	10.78667
367.125	10.67946
367.337	10.46806
367.549	10.60827
367.762	10.95941
367.974	11.00967
368.186	10.87679
368.398	12.2044
368.61	11.66364
368.822	11.87784
369.034	10.87402
369.246	12.17535
369.458	14.02603
369.67	10.17227
369.882	12.9643
370.094	9.1259
370.306	12.88134
370.518	10.90296
370.73	10.7872
370.942	10.71312
371.154	11.20993
371.366	10.93737
371.578	12.00082
371.79	11.02527
372.002	12.63867
372.214	13.83342
372.425	11.54818
372.637	13.1875
372.849	11.9285
373.061	9.31369
373.273	11.97548
373.484	11.90705
373.696	12.33729
373.908	8.94545
374.12	12.48652
374.331	12.13998
374.543	10.5036
374.755	10.37984
374.967	11.52155
375.178	12.68969
375.39	11.20888
375.602	11.88102
375.813	10.10847
376.025	10.80765
376.236	11.72513
376.448	12.19948
376.66	11.66498
376.871	11.74829
377.083	12.78286
377.294	13.83846
377.506	11.32334
377.717	13.50413
377.929	12.28645
378.14	11.49724
378.352	12.59774
378.563	12.79848
378.775	13.46862
378.986	11.09225
379.197	12.33735
379.409	11.2538
379.62	12.61402
379.832	12.1884
380.043	11.66796
380.254	12.42311
380.466	10.81367
380.677	14.93988
380.888	14.49845
381.1	15.00736
381.311	15.07162
381.522	12.45833
381.733	15.17978
381.945	11.91088
382.156	12.03488
382.367	11.77118
382.578	15.29732
382.789	15.55429
383.001	11.62804
383.212	14.41602
383.423	14.37935
383.634	13.64781
383.845	13.23104
384.056	12.35002
384.267	12.71332
384.478	12.73923
384.69	11.51308
384.901	13.07629
385.112	12.84847
385.323	14.68005
385.534	13.05832
385.745	13.18741
385.956	13.00851
386.167	11.93161
386.378	13.39614
386.588	12.08487
386.799	11.93196
387.01	11.29779
387.221	13.66855
387.432	12.913
387.643	14.843
387.854	12.73102
388.065	12.54111
388.275	12.8033
388.486	12.59737
388.697	12.93706
388.908	12.63403
389.119	14.15119
389.329	14.58156
389.54	13.13029
389.751	13.27654
389.962	14.31069
390.172	13.07134
390.383	13.06029
390.594	12.42726
390.804	12.68151
391.015	12.85097
391.226	13.38509
391.436	13.90024
391.647	13.76782
391.858	14.02753
392.068	11.76559
392.279	12.54178
392.489	13.93136
392.7	14.26544
392.91	12.60918
393.121	12.71861
393.331	13.96738
393.542	14.67353
393.752	14.3672
393.963	13.80711
394.173	13.78058
394.384	14.19884
394.594	13.7327
394.804	12.51824
395.015	13.80717
395.225	14.20724
395.436	12.64158
395.646	14.02646
395.856	13.30766
396.067	12.3352
396.277	14.66908
396.487	14.12499
396.697	14.07269
396.908	14.44803
397.118	14.29121
397.328	13.85189
397.538	14.64915
397.749	12.90309
397.959	14.70772
398.169	14.27316
398.379	12.46569
398.589	14.48873
398.8	13.90388
399.01	14.05158
399.22	13.7023
399.43	16.20426
399.64	13.94555
399.85	14.43672
400.06	14.11116
400.27	13.09122
400.48	14.04572
400.69	15.15007
400.9	13.63633
401.11	12.81652
401.32	14.79708
401.53	13.42919
401.74	15.71492
401.95	14.63925
402.16	13.74515
402.37	14.70047
402.58	13.70754
402.79	14.6354
403	15.02758
403.209	13.5984
403.419	15.28121
403.629	13.76063
403.839	15.29966
404.049	15.25134
404.258	14.06432
404.468	13.79692
404.678	15.30651
404.888	15.676
405.097	14.17094
405.307	14.65573
405.517	15.37332
405.727	15.17199
405.936	14.36014
406.146	14.88693
406.356	15.98978
406.565	14.64343
406.775	14.35753
406.984	14.37084
407.194	16.54738
407.404	14.73873
407.613	15.15627
407.823	15.35845
408.032	16.08067
408.242	15.78227
408.451	14.24979
408.661	14.53011
408.87	16.32
409.08	14.18955
409.289	15.18558
409.499	15.15543
409.708	14.92852
409.918	13.11166
410.127	15.0553
410.336	16.55144
410.546	15.88613
410.755	14.65179
410.964	14.70596
411.174	14.34035
411.383	15.56776
411.592	15.45204
411.802	14.20394
412.011	15.90002
412.22	15.13185
412.429	16.58944
412.639	16.4468
412.848	16.152
413.057	16.87397
413.266	16.37813
413.475	15.23053
413.685	15.96025
413.894	16.15865
414.103	16.45229
414.312	16.07117
414.521	15.35206
414.73	15.5376
414.939	17.36601
415.148	16.00652
415.357	15.89395
415.566	15.40129
415.776	15.30168
415.985	15.35058
416.194	16.60779
416.403	17.62893
416.611	14.8514
416.82	15.45161
417.029	16.31194
417.238	15.68456
417.447	15.41427
417.656	15.82408
417.865	15.59032
418.074	16.06776
418.283	16.32692
418.492	17.16898
418.7	16.9963
418.909	17.74748
419.118	16.55363
419.327	16.93965
419.536	16.60991
419.744	16.2338
419.953	17.38528
420.162	17.35756
420.371	16.75551
420.579	17.61832
420.788	18.57805
420.997	18.75497
421.205	19.1346
421.414	18.69066
421.623	18.84372
421.831	18.19542
422.04	18.84204
422.249	17.52461
422.457	17.93167
