Data from WindowProjectSample_Transmission__89__00089.txt Node

Date: Sat May 03 18:15:29 EDT 2025
User: jessi
Spectrometer: SR400872
Trigger mode: 0
Integration Time (sec): 5.000010E-1
Scans to average: 6
Electric dark correction enabled: true
Nonlinearity correction enabled: true
Boxcar width: 0
XAxis mode: Wavelengths
Number of Pixels in Spectrum: 3648
>>>>>Begin Spectral Data<<<<<
184.909	3366.18681
185.132	4239.46203
185.355	-4222.85171
185.578	4325.38482
185.801	-452.0108
186.024	-5177.08841
186.247	1714.48802
186.47	506.50709
186.693	-102.62893
186.916	987.04951
187.139	3192.9172
187.362	-1911.88855
187.585	5061.88665
187.808	30230.81
188.031	-51.16686
188.254	-4125.26013
188.476	720.21358
188.699	3389.40379
188.922	-306.00347
189.145	-6953.13314
189.368	-393.81477
189.591	-747.23235
189.813	-2527.8376
190.036	949.14986
190.259	-8915.76418
190.482	1275.1799
190.705	4007.85284
190.927	-1952.45126
191.15	-6884.50226
191.373	6335.32174
191.595	-1224.56671
191.818	2106.43032
192.041	-678.79506
192.263	1978.60315
192.486	-2361.49768
192.709	-24213.34254
192.931	1875.18123
193.154	-3826.51427
193.377	-2452.11132
193.599	4772.69813
193.822	1897.21624
194.044	6210.94296
194.267	847.93387
194.489	-347.44237
194.712	2506.77758
194.934	8835.33701
195.157	-23864.07617
195.379	2101.33437
195.602	1688.88364
195.824	1492.28423
196.047	40671.72891
196.269	3375.08834
196.492	-1975.22406
196.714	-1293.25257
196.936	1807.2865
197.159	-11677.94396
197.381	-406.23203
197.604	-4663.87085
197.826	-18384.76015
198.048	10369.42963
198.271	-7896.15585
198.493	4372.16282
198.715	3574.50298
198.938	-752.16838
199.16	-18439.57079
199.382	1175.12419
199.604	-1819.88343
199.827	-3520.08024
200.049	2298.42232
200.271	-6942.64064
200.493	-44472.06705
200.715	3739.87111
200.938	-3079.85866
201.16	-2689.8836
201.382	-1448.1779
201.604	-3272.06789
201.826	3471.87985
202.048	3307.23983
202.27	-1114.79063
202.492	-3447.80184
202.715	-1301.09453
202.937	-16832.19634
203.159	2463.70011
203.381	2275.1568
203.603	-2910.22343
203.825	-966.28585
204.047	56220.34373
204.269	-1421.18548
204.491	-1346.45633
204.713	69601.59395
204.935	-3280.65735
205.156	-1017.45094
205.378	-4479.39816
205.6	-1278.54603
205.822	2307.14529
206.044	-434.66345
206.266	6413.49113
206.488	877.57198
206.71	3410.0295
206.932	1687.28706
207.153	-1609.44072
207.375	-2756.88706
207.597	3759.64471
207.819	29696.37153
208.041	3978.53729
208.262	-1538.7052
208.484	-1118.71621
208.706	-1623.17046
208.927	3023.13677
209.149	5637.78748
209.371	-5053.97752
209.593	430.8859
209.814	-28992.90392
210.036	2416.49268
210.258	-808.35013
210.479	4279.94144
210.701	-3519.97966
210.922	-11090.80013
211.144	-989.89696
211.366	4923.66254
211.587	-2215.70809
211.809	-4713.68942
212.03	-786.73045
212.252	-625.30715
212.473	3585.13635
212.695	-740.36588
212.916	-874.15275
213.138	680.12934
213.359	-1504.42042
213.581	12802.18463
213.802	-2487.30009
214.024	-2478.42923
214.245	-6006.42402
214.466	-206.90507
214.688	-3051.80044
214.909	-20609.45946
215.131	-4700.32494
215.352	-2401.63284
215.573	11552.354
215.795	1600.36755
216.016	6907.37403
216.237	-575.76057
216.459	6690.248
216.68	-3666.65792
216.901	-2880.06378
217.122	-2284.16005
217.344	-7367.66198
217.565	-2873.23162
217.786	2277.77327
218.007	1730.71561
218.228	-658.29038
218.45	-4254.41402
218.671	1452.4569
218.892	3720.9007
219.113	1533.55925
219.334	113.27596
219.555	-6904.72178
219.776	12200.32998
219.997	4047.77177
220.219	1879.11594
220.44	1090.30767
220.661	996.95478
220.882	-2828.28465
221.103	-1085.18686
221.324	2429.24593
221.545	3136.04449
221.766	-3451.51253
221.987	-592.46536
222.208	-10480.02966
222.429	173087.34143
222.65	-394.03634
222.87	-9796.90558
223.091	2657.76414
223.312	-1276.89566
223.533	2404.43036
223.754	2164.97428
223.975	2884.17357
224.196	-6406.48668
224.417	-2962.3497
224.637	8594.08712
224.858	1265.62174
225.079	1309.44961
225.3	1124.46138
225.521	4845.95661
225.741	920.21773
225.962	1180.58939
226.183	-497.79621
226.404	1457.98437
226.624	1111.92216
226.845	1698.9057
227.066	903.14159
227.286	545.24747
227.507	246.28078
227.728	183.49968
227.948	280.05346
228.169	91.78156
228.389	91.76197
228.61	48.28047
228.831	64.04621
229.051	6.57225
229.272	37.47391
229.492	50.05072
229.713	15.18502
229.933	37.78137
230.154	34.78769
230.374	52.2195
230.595	43.40049
230.815	28.03439
231.036	38.04617
231.256	-6.04385
231.477	81.33166
231.697	41.79585
231.917	50.81689
232.138	63.51246
232.358	133.85509
232.579	130.58268
232.799	18.19322
233.019	111.79356
233.24	145.73442
233.46	39.81875
233.68	72.39983
233.901	55.20918
234.121	32.78223
234.341	7.39339
234.561	-6.18355
234.782	27.32353
235.002	80.57854
235.222	-4.47329
235.442	71.74404
235.662	34.25821
235.883	77.71375
236.103	64.78994
236.323	50.46367
236.543	35.72274
236.763	50.21809
236.983	49.86701
237.203	51.5596
237.423	78.52752
237.643	102.47552
237.864	88.09894
238.084	24.23462
238.304	34.53078
238.524	58.94471
238.744	47.68756
238.964	73.80193
239.184	69.10228
239.404	74.6472
239.624	37.54498
239.843	68.78432
240.063	38.35731
240.283	25.8694
240.503	27.86589
240.723	28.27859
240.943	15.21883
241.163	19.89008
241.383	15.23196
241.603	7.75752
241.822	9.06194
242.042	7.04953
242.262	8.73057
242.482	9.67877
242.702	11.2923
242.921	3.93001
243.141	8.28916
243.361	6.62911
243.581	10.24564
243.8	8.92972
244.02	6.25202
244.24	10.85737
244.459	10.09353
244.679	19.59428
244.899	13.86822
245.118	14.95369
245.338	13.37918
245.558	17.79142
245.777	10.56715
245.997	10.83294
246.216	10.61363
246.436	6.22108
246.655	4.16388
246.875	3.58948
247.094	6.79162
247.314	2.38444
247.533	3.78256
247.753	4.8451
247.972	3.77428
248.192	1.50681
248.411	2.3614
248.631	4.24377
248.85	5.36344
249.07	3.94655
249.289	7.54452
249.508	4.81124
249.728	8.12909
249.947	8.75181
250.166	9.40434
250.386	5.39752
250.605	8.18027
250.824	12.54054
251.044	9.17368
251.263	26.74083
251.482	15.22109
251.701	13.28384
251.921	0.40479
252.14	4.8624
252.359	4.48324
252.578	10.64581
252.798	3.71767
253.017	10.42537
253.236	5.55025
253.455	6.55456
253.674	13.01173
253.893	6.1219
254.112	9.4929
254.331	12.86341
254.551	10.11697
254.77	5.35651
254.989	16.43873
255.208	13.03505
255.427	17.23083
255.646	16.70693
255.865	24.68936
256.084	10.00867
256.303	11.7432
256.522	15.31453
256.741	3.31924
256.96	4.92612
257.179	10.18155
257.397	11.92258
257.616	6.25779
257.835	7.72499
258.054	17.10805
258.273	10.30588
258.492	12.41095
258.711	7.24139
258.93	3.37259
259.148	4.39544
259.367	4.61631
259.586	5.86103
259.805	2.71035
260.023	5.09594
260.242	4.36466
260.461	2.9672
260.68	1.94393
260.898	4.82318
261.117	1.74231
261.336	1.45325
261.554	4.02751
261.773	4.28413
261.992	0.58571
262.21	4.29292
262.429	4.96558
262.648	8.06863
262.866	9.55344
263.085	6.34681
263.303	5.5898
263.522	9.77739
263.74	10.66905
263.959	16.07042
264.178	8.91166
264.396	7.88251
264.615	5.43158
264.833	12.39222
265.051	11.17762
265.27	11.13936
265.488	12.41012
265.707	7.33433
265.925	12.29916
266.144	5.61795
266.362	6.76325
266.58	6.93128
266.799	5.21468
267.017	6.89965
267.235	5.92638
267.454	3.55204
267.672	2.20812
267.89	5.14615
268.109	5.27678
268.327	5.02529
268.545	1.29678
268.763	4.72185
268.982	2.20753
269.2	6.05719
269.418	3.47291
269.636	2.4106
269.854	4.93975
270.073	4.25778
270.291	1.90557
270.509	2.32085
270.727	4.94861
270.945	8.33011
271.163	8.04195
271.381	1.83176
271.599	3.50445
271.817	5.72257
272.036	1.97702
272.254	3.42477
272.472	2.76696
272.69	2.84054
272.908	2.93586
273.126	4.62722
273.344	6.07419
273.562	2.40903
273.779	2.93303
273.997	4.08179
274.215	4.87251
274.433	3.54568
274.651	5.0733
274.869	5.57453
275.087	3.14728
275.305	4.86496
275.523	3.12902
275.74	3.69847
275.958	6.01493
276.176	8.75946
276.394	2.71729
276.612	3.73318
276.829	3.56513
277.047	2.98287
277.265	3.57084
277.483	4.19817
277.7	4.86685
277.918	3.89523
278.136	7.16227
278.353	4.22072
278.571	1.91816
278.789	5.53169
279.006	1.11924
279.224	3.19411
279.442	5.64961
279.659	4.03922
279.877	3.02
280.094	6.20985
280.312	1.37179
280.529	4.02545
280.747	1.09704
280.964	3.07256
281.182	6.66226
281.399	2.96866
281.617	4.32705
281.834	2.96567
282.052	2.53441
282.269	3.6991
282.487	2.9864
282.704	2.28226
282.921	2.81905
283.139	3.66488
283.356	4.89157
283.574	4.09831
283.791	2.06552
284.008	5.86438
284.226	3.3197
284.443	3.68575
284.66	4.69455
284.877	3.6691
285.095	2.65198
285.312	1.77584
285.529	1.34397
285.746	0.98669
285.964	2.49394
286.181	1.49593
286.398	2.30944
286.615	2.96259
286.832	2.93329
287.05	0.88716
287.267	2.10857
287.484	2.33416
287.701	3.14588
287.918	2.90411
288.135	3.16612
288.352	1.19526
288.569	1.6776
288.786	2.52182
289.003	2.1482
289.22	3.2469
289.437	1.99857
289.654	3.50281
289.871	3.55087
290.088	3.39142
290.305	2.58872
290.522	2.11393
290.739	2.50547
290.956	3.67703
291.173	4.16278
291.39	3.84189
291.607	2.72919
291.824	2.19385
292.04	1.5083
292.257	3.19272
292.474	3.76194
292.691	2.55308
292.908	1.19451
293.125	2.16697
293.341	1.29437
293.558	5.70206
293.775	2.27014
293.992	2.54286
294.208	1.07979
294.425	1.39699
294.642	1.92331
294.858	3.0148
295.075	0.85002
295.292	2.22734
295.508	2.75336
295.725	4.14231
295.942	2.12024
296.158	1.59966
296.375	2.49447
296.591	1.8449
296.808	1.98549
297.024	2.14402
297.241	2.57485
297.458	2.52912
297.674	0.17973
297.891	2.11238
298.107	1.60314
298.323	1.24421
298.54	2.96274
298.756	1.50827
298.973	0.70601
299.189	3.16287
299.406	1.43947
299.622	3.30964
299.838	3.14748
300.055	2.89395
300.271	0.8818
300.487	0.9892
300.704	1.53209
300.92	1.0143
301.136	4.44189
301.353	3.14035
301.569	2.27732
301.785	2.72695
302.001	3.1787
302.218	2.57397
302.434	2.47413
302.65	0.67736
302.866	1.85724
303.083	4.48587
303.299	4.01058
303.515	2.03096
303.731	2.35825
303.947	1.09396
304.163	1.42974
304.379	2.43856
304.595	2.71739
304.812	1.64404
305.028	1.40397
305.244	2.04858
305.46	3.07054
305.676	3.36458
305.892	3.82443
306.108	2.38273
306.324	1.7858
306.54	4.30843
306.756	2.90609
306.972	2.77438
307.187	2.2397
307.403	3.85116
307.619	1.52832
307.835	3.40766
308.051	3.88608
308.267	0.84086
308.483	3.11763
308.699	2.83693
308.914	2.31697
309.13	2.04352
309.346	0.54577
309.562	1.24749
309.778	0.79267
309.993	2.90775
310.209	2.11138
310.425	0.99047
310.641	1.83475
310.856	1.12327
311.072	0.9839
311.288	1.88698
311.503	2.13619
311.719	0.45142
311.935	0.34926
312.15	2.40153
312.366	2.14024
312.581	2.63602
312.797	2.12982
313.013	2.73958
313.228	1.80204
313.444	2.34705
313.659	1.54725
313.875	2.64214
314.09	2.18606
314.306	3.31874
314.521	3.05724
314.737	2.89033
314.952	2.47205
315.168	2.04361
315.383	2.77559
315.599	1.99354
315.814	1.87469
316.029	2.86608
316.245	0.9135
316.46	0.74995
316.675	3.4798
316.891	4.44123
317.106	5.05417
317.321	3.01352
317.537	2.72727
317.752	2.90716
317.967	3.13072
318.183	1.69475
318.398	1.94973
318.613	3.29667
318.828	3.67813
319.043	3.09245
319.259	1.86596
319.474	2.65685
319.689	3.39295
319.904	0.59908
320.119	3.01395
320.334	2.6575
320.549	2.20271
320.765	3.40493
320.98	2.41918
321.195	3.40252
321.41	1.93615
321.625	3.23764
321.84	4.15089
322.055	4.34703
322.27	1.78343
322.485	1.07957
322.7	2.63846
322.915	3.60488
323.13	1.43522
323.345	3.79095
323.56	3.11177
323.775	2.94912
323.989	2.97699
324.204	2.3803
324.419	3.18161
324.634	0.89671
324.849	2.17661
325.064	4.3922
325.279	3.32606
325.493	2.88722
325.708	3.42135
325.923	1.43585
326.138	1.42793
326.352	3.90187
326.567	3.04926
326.782	1.80713
326.997	1.48845
327.211	2.92718
327.426	2.59775
327.641	1.92569
327.855	0.75275
328.07	2.87098
328.285	3.96805
328.499	2.03262
328.714	2.83566
328.928	3.34558
329.143	2.28759
329.358	3.30239
329.572	3.43186
329.787	3.56112
330.001	4.9113
330.216	0.96766
330.43	4.07306
330.645	4.29977
330.859	3.15664
331.074	1.88035
331.288	2.52156
331.503	3.67871
331.717	1.29062
331.931	2.31239
332.146	2.42205
332.36	4.15219
332.575	2.75974
332.789	2.50996
333.003	2.14951
333.218	2.96392
333.432	2.16588
333.646	2.9581
333.86	3.75255
334.075	4.16894
334.289	2.07406
334.503	1.58206
334.717	3.03672
334.932	2.884
335.146	3.75154
335.36	2.34452
335.574	2.97075
335.788	2.92587
336.003	3.57841
336.217	3.109
336.431	3.09897
336.645	1.70448
336.859	1.22185
337.073	2.01083
337.287	2.66039
337.501	1.35085
337.715	2.51569
337.929	3.06333
338.143	1.31944
338.357	2.27844
338.571	1.42064
338.785	2.68212
338.999	1.77317
339.213	1.95714
339.427	0.76703
339.641	3.32321
339.855	2.31059
340.069	1.7736
340.283	3.58706
340.497	3.97085
340.711	2.75267
340.924	1.84325
341.138	1.30279
341.352	1.01261
341.566	2.50775
341.78	0.74767
341.993	1.79171
342.207	1.0958
342.421	2.39602
342.635	2.4644
342.848	1.78643
343.062	0.20141
343.276	1.66705
343.49	4.35778
343.703	1.5968
343.917	3.01683
344.131	3.08339
344.344	1.56315
344.558	1.83613
344.771	1.36825
344.985	3.51419
345.199	3.72475
345.412	2.35408
345.626	2.33079
345.839	0.78732
346.053	1.10701
346.266	1.11463
346.48	3.02631
346.693	2.27408
346.907	2.72808
347.12	1.34976
347.334	2.43288
347.547	2.50682
347.76	2.16893
347.974	3.28328
348.187	2.36352
348.401	1.95208
348.614	1.651
348.827	1.92107
349.041	2.73348
349.254	0.78745
349.467	2.11385
349.681	1.00035
349.894	1.48896
350.107	3.51822
350.32	3.50918
350.534	0.54599
350.747	1.85507
350.96	1.30641
351.173	1.52442
351.386	1.97714
351.6	1.67959
351.813	1.57548
352.026	2.19865
352.239	0.88301
352.452	1.51684
352.665	2.78008
352.878	1.75236
353.092	4.11727
353.305	2.63717
353.518	2.36915
353.731	1.45899
353.944	3.29798
354.157	1.34
354.37	1.33439
354.583	1.17146
354.796	0.72907
355.009	3.03483
355.222	2.03176
355.435	2.17313
355.647	3.07604
355.86	1.1145
356.073	1.87158
356.286	1.38481
356.499	2.63036
356.712	2.22997
356.925	2.21693
357.138	2.87578
357.35	1.04691
357.563	1.57669
357.776	2.11952
357.989	1.50829
358.201	2.35934
358.414	1.88442
358.627	2.94517
358.84	1.57376
359.052	1.06557
359.265	1.00842
359.478	2.77025
359.69	-0.43049
359.903	2.44157
360.116	2.53123
360.328	0.51078
360.541	2.63073
360.753	0.98163
360.966	1.2518
361.179	1.41342
361.391	1.31794
361.604	0.87994
361.816	1.31387
362.029	1.09108
362.241	1.00021
362.454	1.26572
362.666	0.94131
362.879	1.6042
363.091	1.45617
363.304	1.09477
363.516	1.62559
363.728	0.72853
363.941	1.99979
364.153	1.15622
364.366	-0.02043
364.578	0.93034
364.79	2.17928
365.003	1.6855
365.215	1.4211
365.427	2.09239
365.639	2.70129
365.852	1.83942
366.064	3.32414
366.276	1.19215
366.488	1.90463
366.701	1.36816
366.913	1.53252
367.125	1.61379
367.337	1.26693
367.549	1.39691
367.762	1.68454
367.974	1.81561
368.186	1.09957
368.398	2.52656
368.61	2.11112
368.822	2.15133
369.034	1.72127
369.246	2.34721
369.458	3.63899
369.67	1.08687
369.882	3.20662
370.094	0.18933
370.306	3.02492
370.518	1.37834
370.73	1.01769
370.942	1.00899
371.154	1.42895
371.366	1.18325
371.578	1.90064
371.79	0.94129
372.002	2.83161
372.214	3.09098
372.425	1.86171
372.637	2.69713
372.849	1.7383
373.061	-0.08765
373.273	2.07083
373.484	2.14519
373.696	2.44583
373.908	0.15167
374.12	2.44064
374.331	2.08583
374.543	1.17015
374.755	0.83526
374.967	1.76419
375.178	2.45055
375.39	1.52379
375.602	1.88948
375.813	0.71892
376.025	0.64649
376.236	1.64792
376.448	1.71918
376.66	1.22456
376.871	1.2802
377.083	2.36996
377.294	2.59435
377.506	1.11133
377.717	2.63598
377.929	1.81105
378.14	1.0217
378.352	2.11871
378.563	2.05017
378.775	2.88736
378.986	1.14891
379.197	1.77479
379.409	1.3933
379.62	2.36031
379.832	1.93527
380.043	1.46396
380.254	1.77538
380.466	0.73353
380.677	3.87727
380.888	3.39447
381.1	3.74247
381.311	3.45847
381.522	1.81768
381.733	3.95557
381.945	1.49799
382.156	1.87767
382.367	1.58196
382.578	4.01143
382.789	4.08534
383.001	1.43721
383.212	2.93795
383.423	3.08363
383.634	2.71827
383.845	2.20195
384.056	1.522
384.267	1.74705
384.478	1.61063
384.69	0.97718
384.901	2.26465
385.112	2.05088
385.323	3.10244
385.534	2.18376
385.745	2.08035
385.956	2.12697
386.167	1.0715
386.378	2.26255
386.588	1.28581
386.799	1.25596
387.01	0.69572
387.221	2.72569
387.432	1.92297
387.643	3.3702
387.854	1.78184
388.065	1.62627
388.275	1.72283
388.486	1.51256
388.697	2.06362
388.908	1.75628
389.119	2.86898
389.329	3.38362
389.54	2.01814
389.751	2.45693
389.962	2.85931
390.172	2.08441
390.383	1.79999
390.594	1.52389
390.804	1.50586
391.015	1.68146
391.226	2.15527
391.436	2.54128
391.647	2.4182
391.858	2.5752
392.068	0.84943
392.279	1.27753
392.489	2.2698
392.7	2.82606
392.91	1.58952
393.121	1.67969
393.331	2.58872
393.542	3.00317
393.752	2.79644
393.963	2.46731
394.173	2.41017
394.384	2.83136
394.594	2.36241
394.804	1.53262
395.015	2.35516
395.225	2.84997
395.436	1.64736
395.646	2.77538
395.856	2.11618
396.067	1.37553
396.277	3.07803
396.487	2.5964
396.697	2.68941
396.908	3.16118
397.118	3.01831
397.328	2.69431
397.538	3.12507
397.749	2.09123
397.959	3.1005
398.169	3.01548
398.379	1.55118
398.589	2.82179
398.8	2.80775
399.01	2.64497
399.22	2.60862
399.43	4.2165
399.64	2.53136
399.85	3.03535
400.06	2.64193
400.27	2.26732
400.48	2.56991
400.69	3.56032
400.9	2.35243
401.11	2.06262
401.32	3.32731
401.53	2.31838
401.74	3.7467
401.95	3.11959
402.16	2.52498
402.37	3.11942
402.58	2.48811
402.79	3.18115
403	3.31686
403.209	2.36962
403.419	3.45617
403.629	2.35783
403.839	3.56023
404.049	3.60561
404.258	2.60407
404.468	2.50748
404.678	3.53586
404.888	3.86024
405.097	2.87733
405.307	3.02164
405.517	3.36877
405.727	3.341
405.936	2.84565
406.146	3.43666
406.356	4.06742
406.565	3.13048
406.775	2.73174
406.984	2.74092
407.194	4.69985
407.404	3.23801
407.613	3.4715
407.823	4.02988
408.032	4.1272
408.242	3.95
408.451	2.93563
408.661	3.37764
408.87	4.61033
409.08	2.89045
409.289	3.7064
409.499	3.60111
409.708	3.44421
409.918	2.1102
410.127	3.65288
410.336	4.57663
410.546	4.0776
410.755	3.02431
410.964	3.1765
411.174	2.82388
411.383	3.85324
411.592	3.70466
411.802	2.8785
412.011	4.11665
412.22	3.3043
412.429	4.47912
412.639	4.46655
412.848	4.24663
413.057	4.90906
413.266	4.27282
413.475	3.69652
413.685	4.2524
413.894	4.27311
414.103	4.41812
414.312	4.17417
414.521	3.46746
414.73	3.85637
414.939	5.10917
415.148	3.97627
415.357	3.87673
415.566	3.75498
415.776	3.71484
415.985	3.4802
416.194	4.33929
416.403	5.20433
416.611	2.93971
416.82	3.57778
417.029	4.03729
417.238	3.52264
417.447	3.48189
417.656	3.89024
417.865	3.6264
418.074	4.10805
418.283	4.50573
418.492	5.43973
418.7	5.10447
418.909	6.46947
419.118	5.13552
419.327	5.57586
419.536	5.32942
419.744	5.28378
419.953	6.7088
420.162	6.65728
420.371	5.74631
420.579	5.95517
420.788	6.97904
420.997	7.14138
421.205	7.22187
421.414	7.02457
421.623	7.05525
421.831	6.59281
422.04	7.2377
422.249	6.32811
422.457	6.84249
422.666	6.23384
422.874	7.24839
423.083	7.16511
423.291	7.17935
423.5	6.93368
423.708	7.12741
423.917	7.79949
424.125	7.1216
424.334	6.9525
424.542	8.70448
424.751	7.96594
424.959	7.64702
425.167	8.10482
425.376	7.9042
425.584	6.84406
425.793	6.93538
426.001	5.77246
426.209	6.48461
426.418	5.25426
426.626	4.99074
426.834	4.69573
