Data from WindowProjectSample_Transmission__68__00068__009703583812964267.txt Node

Date: Mon May 05 18:36:39 EDT 2025
User: jessi
Spectrometer: SR400872
Trigger mode: 0
Integration Time (sec): 5.000010E-1
Scans to average: 20
Electric dark correction enabled: true
Nonlinearity correction enabled: true
Boxcar width: 0
XAxis mode: Wavelengths
Number of Pixels in Spectrum: 3648
>>>>>Begin Spectral Data<<<<<
184.909	21666.93731
185.132	-5270.24104
185.355	-3039.62671
185.578	-18210.89835
185.801	1987.64456
186.024	10482.84648
186.247	-1977.21953
186.47	1181.94459
186.693	323.04235
186.916	436.14698
187.139	-3858.93602
187.362	3471.25303
187.585	4139.48753
187.808	3807.96256
188.031	40.78338
188.254	-52772.88533
188.476	-671.80509
188.699	6655.32001
188.922	719.23136
189.145	-15720.37045
189.368	-787.15885
189.591	-1402.93965
189.813	3242.64745
190.036	-52401.20216
190.259	-875.86468
190.482	-4853.61171
190.705	7201.36575
190.927	-2547.44036
191.15	13424.0138
191.373	3423.99008
191.595	-9214.00167
191.818	-4266.47785
192.041	-7723.53038
192.263	-3504.63184
192.486	-989.1993
192.709	-4071.2035
192.931	8089.32667
193.154	-29840.97379
193.377	-3029.72818
193.599	-2595.12946
193.822	-9570.94186
194.044	-2027.77012
194.267	1288.58058
194.489	300.62361
194.712	-45918.6872
194.934	-32214.28943
195.157	1262.85786
195.379	1500.87078
195.602	-7073.95885
195.824	-1351.30707
196.047	-9305.46779
196.269	2796.00026
196.492	-6508.56476
196.714	30160.98781
196.936	-8745.82452
197.159	-1254.7116
197.381	1145.47563
197.604	578.9282
197.826	11631.39503
198.048	-11082.53263
198.271	-2681.10128
198.493	7826.53884
198.715	2351.6263
198.938	-479.87347
199.16	7002.3765
199.382	-100617.56124
199.604	2927.74739
199.827	-1137.7535
200.049	-3046.57747
200.271	14207.03799
200.493	1284.98997
200.715	-38722.62458
200.938	-6172.04951
201.16	-4179.70321
201.382	20409.25165
201.604	2327.82449
201.826	2443.84064
202.048	-1822.23972
202.27	-1991.20044
202.492	-37568.28666
202.715	3086.47209
202.937	-4544.96133
203.159	-6331.67566
203.381	1502.94443
203.603	6911.5422
203.825	6816.89904
204.047	2269.88584
204.269	-2878.15926
204.491	2219.02804
204.713	6143.34189
204.935	-516826.58807
205.156	1216.17168
205.378	-3074.83017
205.6	1725.49398
205.822	160468.73897
206.044	-1089.26186
206.266	1641.91523
206.488	4893.17604
206.71	-5581.11408
206.932	1193.40274
207.153	12282.99565
207.375	-7237.46276
207.597	-38317.04525
207.819	-2905.31256
208.041	2563.18672
208.262	566.19413
208.484	779.68044
208.706	-776.35096
208.927	-945.60294
209.149	579.38786
209.371	-2934.08712
209.593	-323.69997
209.814	-761.70914
210.036	744.9817
210.258	-765.99808
210.479	1992.30835
210.701	1628.93584
210.922	3581.72593
211.144	-4064.12351
211.366	2160.87237
211.587	8019.8918
211.809	-8518.14694
212.03	2461.27566
212.252	467.34461
212.473	2102.07678
212.695	-6643.8516
212.916	2989.46518
213.138	-722.69358
213.359	3841.92827
213.581	5506.82907
213.802	-818.46997
214.024	1177.64569
214.245	2297.13227
214.466	3021.45186
214.688	-3190.98274
214.909	-1239.5486
215.131	-1744.09126
215.352	-3335.00197
215.573	14714.41533
215.795	5273.36689
216.016	5583.59327
216.237	773.52181
216.459	3762.79841
216.68	1929.5065
216.901	5192.53726
217.122	-3328.44621
217.344	-12205.7346
217.565	3529.48294
217.786	9228.62527
218.007	19895.81183
218.228	-752.58226
218.45	6176.65376
218.671	871.27233
218.892	36943.56839
219.113	1495.93979
219.334	-270.4775
219.555	10428.83851
219.776	3046.13181
219.997	23300.02086
220.219	2908.03144
220.44	-10871.41196
220.661	492.30916
220.882	1578.95208
221.103	-1203.79675
221.324	2243.23725
221.545	2309.63588
221.766	-9438.61706
221.987	976.60556
222.208	1952.03631
222.429	4382.57477
222.65	258.6842
222.87	18440.01828
223.091	772.80915
223.312	609.26429
223.533	1478.43779
223.754	1515.86235
223.975	1383.64087
224.196	1978.54737
224.417	1332.89212
224.637	713.72064
224.858	95.11352
225.079	1093.49374
225.3	661.17489
225.521	3811.26214
225.741	465.57072
225.962	549.68101
226.183	135.56345
226.404	666.14339
226.624	434.82549
226.845	658.50413
227.066	415.27728
227.286	256.87431
227.507	133.75872
227.728	121.37887
227.948	245.26558
228.169	75.8087
228.389	90.07582
228.61	48.30665
228.831	65.88321
229.051	3.60833
229.272	41.40081
229.492	58.21641
229.713	14.71164
229.933	38.35081
230.154	31.50942
230.374	56.22232
230.595	38.33455
230.815	24.04411
231.036	39.9381
231.256	-8.09111
231.477	71.47506
231.697	39.50986
231.917	42.98504
232.138	55.17866
232.358	115.48813
232.579	103.88267
232.799	18.95294
233.019	103.16861
233.24	115.34621
233.46	39.01285
233.68	65.79999
233.901	44.57821
234.121	27.06483
234.341	15.31563
234.561	-0.17562
234.782	23.6426
235.002	66.15631
235.222	-3.50021
235.442	63.48856
235.662	35.65653
235.883	64.06992
236.103	54.19337
236.323	40.30298
236.543	29.93104
236.763	40.54793
236.983	42.05935
237.203	40.37929
237.423	65.05777
237.643	90.64615
237.864	78.03575
238.084	20.68657
238.304	26.67816
238.524	45.24497
238.744	42.01806
238.964	75.89841
239.184	65.68855
239.404	64.78939
239.624	35.16846
239.843	60.74813
240.063	38.40447
240.283	23.60963
240.503	26.06412
240.723	25.27079
240.943	15.02481
241.163	21.07052
241.383	15.29618
241.603	7.65228
241.822	10.3654
242.042	7.13338
242.262	8.08876
242.482	9.62546
242.702	11.17016
242.921	2.97838
243.141	6.47862
243.361	6.28152
243.581	9.62109
243.8	7.28036
244.02	5.12136
244.24	9.39374
244.459	9.52258
244.679	18.04013
244.899	11.7936
245.118	12.75353
245.338	12.18485
245.558	14.37095
245.777	9.21896
245.997	10.78627
246.216	10.92438
246.436	6.60388
246.655	4.91276
246.875	3.41409
247.094	6.23842
247.314	2.19877
247.533	3.60261
247.753	4.39649
247.972	3.53807
248.192	1.40171
248.411	1.8798
248.631	3.56778
248.85	4.76236
249.07	4.08353
249.289	5.97016
249.508	5.37925
249.728	6.8566
249.947	6.77537
250.166	8.7549
250.386	4.44856
250.605	7.23712
250.824	11.27952
251.044	7.99049
251.263	29.28125
251.482	14.87355
251.701	11.84446
251.921	-0.0816
252.14	3.67378
252.359	3.91074
252.578	10.62142
252.798	3.30686
253.017	9.05572
253.236	4.51789
253.455	5.57822
253.674	10.85132
253.893	5.42847
254.112	7.61448
254.331	11.00487
254.551	8.85362
254.77	4.39814
254.989	13.67574
255.208	10.66252
255.427	15.51504
255.646	11.70355
255.865	22.39701
256.084	9.083
256.303	10.70616
256.522	14.40608
256.741	3.91623
256.96	2.97224
257.179	8.38366
257.397	11.19776
257.616	6.46383
257.835	6.50929
258.054	15.70408
258.273	11.01506
258.492	11.13336
258.711	6.96314
258.93	3.32176
259.148	4.90888
259.367	4.82204
259.586	5.6737
259.805	2.3982
260.023	5.34543
260.242	4.09187
260.461	2.85135
260.68	1.27005
260.898	4.57932
261.117	1.39301
261.336	1.07805
261.554	3.62418
261.773	3.53664
261.992	0.93672
262.21	3.64253
262.429	3.30687
262.648	7.44046
262.866	8.43843
263.085	5.96802
263.303	5.10426
263.522	9.12438
263.74	9.05929
263.959	15.46101
264.178	7.88744
264.396	6.41944
264.615	4.62444
264.833	10.82108
265.051	9.14675
265.27	11.1271
265.488	11.01412
265.707	6.34364
265.925	11.24567
266.144	5.05176
266.362	5.72544
266.58	5.44047
266.799	5.19812
267.017	6.31493
267.235	5.56233
267.454	3.70322
267.672	2.01222
267.89	4.11154
268.109	4.47
268.327	4.51873
268.545	0.91257
268.763	4.05927
268.982	1.63047
269.2	4.35765
269.418	3.08016
269.636	2.1325
269.854	4.93837
270.073	3.31009
270.291	1.96795
270.509	1.82173
270.727	4.44202
270.945	7.30961
271.163	7.2315
271.381	1.61987
271.599	3.45059
271.817	5.70217
272.036	1.86321
272.254	3.40863
272.472	2.34549
272.69	2.60187
272.908	2.43086
273.126	4.52577
273.344	5.37897
273.562	1.80307
273.779	2.55947
273.997	3.9432
274.215	4.33843
274.433	2.93525
274.651	4.53071
274.869	4.74015
275.087	3.03067
275.305	3.96248
275.523	2.52874
275.74	2.97028
275.958	5.58896
276.176	8.2845
276.394	2.67667
276.612	3.35645
276.829	3.25495
277.047	2.71133
277.265	3.13533
277.483	3.54197
277.7	4.51265
277.918	3.51515
278.136	6.23609
278.353	3.03214
278.571	1.84206
278.789	4.48384
279.006	0.96334
279.224	2.92042
279.442	5.36101
279.659	3.63064
279.877	2.60635
280.094	6.0185
280.312	0.99706
280.529	3.63808
280.747	1.05298
280.964	2.75247
281.182	6.16786
281.399	2.80062
281.617	3.87102
281.834	2.81383
282.052	2.00955
282.269	3.24364
282.487	2.56651
282.704	2.07675
282.921	2.28095
283.139	3.46492
283.356	4.14449
283.574	3.97642
283.791	1.89914
284.008	5.55787
284.226	3.14341
284.443	3.27581
284.66	4.37575
284.877	3.48881
285.095	2.08065
285.312	1.70204
285.529	0.86173
285.746	0.8932
285.964	2.07705
286.181	1.40931
286.398	1.95355
286.615	2.77586
286.832	2.67412
287.05	0.6124
287.267	1.92452
287.484	1.87095
287.701	2.63762
287.918	2.66966
288.135	2.74477
288.352	1.26628
288.569	1.51552
288.786	2.41065
289.003	2.10517
289.22	3.15395
289.437	1.79893
289.654	2.90491
289.871	3.11195
290.088	3.12458
290.305	2.43393
290.522	1.83226
290.739	2.02555
290.956	3.37696
291.173	3.68658
291.39	3.41938
291.607	2.3968
291.824	1.78552
292.04	1.3003
292.257	3.06574
292.474	3.28303
292.691	2.11238
292.908	1.09673
293.125	1.62193
293.341	1.14741
293.558	5.10398
293.775	2.0736
293.992	1.97608
294.208	0.86995
294.425	1.37478
294.642	1.99553
294.858	2.98782
295.075	0.72825
295.292	2.0665
295.508	2.4234
295.725	4.23856
295.942	1.84418
296.158	1.40324
296.375	2.29866
296.591	1.76429
296.808	1.93587
297.024	2.31528
297.241	2.57767
297.458	2.74503
297.674	0.55345
297.891	2.13924
298.107	1.87562
298.323	1.47945
298.54	3.52604
298.756	1.8388
298.973	1.14916
299.189	3.65978
299.406	1.78977
299.622	3.42119
299.838	3.36036
300.055	3.3561
300.271	1.39029
300.487	1.77302
300.704	2.08272
300.92	1.56927
301.136	5.13007
301.353	3.403
301.569	2.65421
301.785	3.01033
302.001	3.52371
302.218	3.08072
302.434	3.28079
302.65	1.72009
302.866	2.47717
303.083	5.07518
303.299	4.88057
303.515	3.08942
303.731	3.41019
303.947	1.75891
304.163	2.4223
304.379	3.28988
304.595	3.56634
304.812	2.40847
305.028	2.44838
305.244	2.92003
305.46	3.72919
305.676	3.83919
305.892	4.35183
306.108	3.59889
306.324	2.78697
306.54	4.90152
306.756	3.81431
306.972	3.56569
307.187	3.08239
307.403	4.51756
307.619	2.77321
307.835	4.38635
308.051	4.70662
308.267	2.35083
308.483	4.45318
308.699	3.84501
308.914	3.3436
309.13	3.23083
309.346	2.13714
309.562	2.49734
309.778	2.10847
309.993	3.86414
310.209	3.48405
310.425	2.3285
310.641	3.37594
310.856	2.57625
311.072	2.41945
311.288	3.34471
311.503	3.69874
311.719	1.90923
311.935	1.8972
312.15	3.92025
312.366	3.54699
312.581	3.82573
312.797	3.35909
313.013	4.1425
313.228	2.86955
313.444	3.26867
313.659	2.84725
313.875	3.96926
314.09	3.36233
314.306	4.69032
314.521	4.40731
314.737	4.26869
314.952	3.54815
315.168	3.55562
315.383	3.86335
315.599	3.32065
315.814	3.24821
316.029	4.1057
316.245	2.63358
316.46	2.08652
316.675	4.63213
316.891	5.19543
317.106	6.29325
317.321	3.79913
317.537	4.34004
317.752	4.4207
317.967	4.429
318.183	2.92667
318.398	3.28715
318.613	4.52069
318.828	4.95336
319.043	4.4118
319.259	3.55306
319.474	4.03349
319.689	4.77436
319.904	2.16166
320.119	4.58949
320.334	4.00846
320.549	3.54498
320.765	4.7739
320.98	4.20743
321.195	4.24193
321.41	3.77516
321.625	4.52441
321.84	5.40651
322.055	5.46256
322.27	3.27228
322.485	2.81847
322.7	4.2741
322.915	4.78709
323.13	3.38016
323.345	5.27113
323.56	4.7237
323.775	4.47348
323.989	4.39109
324.204	4.26223
324.419	5.04866
324.634	2.95851
324.849	3.93756
325.064	7.09307
325.279	4.94571
325.493	4.45725
325.708	4.78825
325.923	3.29412
326.138	3.77534
326.352	5.55376
326.567	4.89033
326.782	3.62042
326.997	3.60352
327.211	4.69248
327.426	4.2021
327.641	3.77766
327.855	2.81545
328.07	4.55715
328.285	5.79494
328.499	3.75391
328.714	4.31236
328.928	4.71997
329.143	4.00032
329.358	5.09263
329.572	5.19458
329.787	5.57678
330.001	6.6424
330.216	3.10634
330.43	6.16542
330.645	5.63997
330.859	5.03484
331.074	3.60024
331.288	4.40998
331.503	5.7207
331.717	3.42705
331.931	4.37018
332.146	4.6076
332.36	6.19693
332.575	4.6841
332.789	4.61308
333.003	4.76374
333.218	4.9453
333.432	3.86938
333.646	5.26405
333.86	6.24757
334.075	6.01264
334.289	3.90038
334.503	3.45036
334.717	4.96935
334.932	4.72793
335.146	5.19114
335.36	3.84169
335.574	5.04297
335.788	4.79014
336.003	5.32156
336.217	5.13599
336.431	5.0296
336.645	4.1147
336.859	3.54626
337.073	4.72421
337.287	4.9376
337.501	3.67991
337.715	5.122
337.929	5.40741
338.143	3.78253
338.357	4.56412
338.571	4.33837
338.785	5.39193
338.999	4.40035
339.213	4.2537
339.427	3.49392
339.641	5.9549
339.855	4.36969
340.069	4.08981
340.283	5.64661
340.497	6.42247
340.711	5.19421
340.924	4.88043
341.138	3.93977
341.352	3.82487
341.566	5.00794
341.78	3.5193
341.993	4.48953
342.207	4.12118
342.421	5.11801
342.635	4.75212
342.848	4.60079
343.062	3.0845
343.276	4.41037
343.49	6.53804
343.703	4.30893
343.917	5.91228
344.131	5.94936
344.344	4.3292
344.558	4.71155
344.771	3.97841
344.985	6.43489
345.199	6.5426
345.412	5.38352
345.626	5.44686
345.839	3.62696
346.053	4.14566
346.266	4.25514
346.48	5.50086
346.693	5.41434
346.907	5.27609
347.12	4.33927
347.334	5.14759
347.547	5.39585
347.76	4.98353
347.974	5.9755
348.187	5.27139
348.401	4.82709
348.614	4.42467
348.827	4.84453
349.041	5.49653
349.254	3.7901
349.467	4.90023
349.681	4.38006
349.894	4.60773
350.107	6.14254
350.32	6.8527
350.534	4.05137
350.747	4.96761
350.96	4.48144
351.173	4.55084
351.386	4.93251
351.6	4.59493
351.813	4.79454
352.026	4.9681
352.239	4.28832
352.452	4.81593
352.665	6.29372
352.878	5.19824
353.092	6.91856
353.305	5.98154
353.518	5.47855
353.731	4.46012
353.944	6.24168
354.157	5.01672
354.37	4.87292
354.583	4.43196
354.796	4.31275
355.009	6.00647
355.222	5.73107
355.435	5.47916
355.647	6.24682
355.86	4.89804
356.073	5.52354
356.286	5.00165
356.499	6.25705
356.712	6.05552
356.925	6.13691
357.138	6.18025
357.35	5.00624
357.563	5.34653
357.776	5.78619
357.989	5.6549
358.201	6.057
358.414	5.88639
358.627	6.71652
358.84	5.54537
359.052	4.74237
359.265	5.19851
359.478	6.45174
359.69	3.9302
359.903	6.37579
360.116	6.72588
360.328	4.74591
360.541	6.53955
360.753	5.42871
360.966	5.71173
361.179	5.93474
361.391	5.80383
361.604	5.65206
361.816	5.77408
362.029	5.69933
362.241	5.28709
362.454	5.70341
362.666	5.22328
362.879	6.26757
363.091	5.59148
363.304	5.35203
363.516	5.61702
363.728	5.12111
363.941	6.04845
364.153	5.90064
364.366	4.42489
364.578	5.19099
364.79	6.05597
365.003	5.9729
365.215	5.37978
365.427	6.30894
365.639	6.58847
365.852	5.93542
366.064	7.44719
366.276	5.78526
366.488	6.08729
366.701	5.6994
366.913	5.76421
367.125	5.80054
367.337	5.20075
367.549	5.4361
367.762	5.94213
367.974	5.97973
368.186	5.54361
368.398	6.4733
368.61	6.27478
368.822	6.43241
369.034	5.73227
369.246	6.47372
369.458	8.286
369.67	5.34774
369.882	7.25223
370.094	4.8115
370.306	7.15354
370.518	5.90905
370.73	5.63605
370.942	5.75094
371.154	6.00866
371.366	5.86438
371.578	6.4043
371.79	5.81759
372.002	6.84663
372.214	7.56286
372.425	5.99762
372.637	7.19586
372.849	6.34536
373.061	4.60546
373.273	6.33263
373.484	6.26025
373.696	6.65203
373.908	4.67462
374.12	6.91558
374.331	6.52718
374.543	5.49082
374.755	5.53369
374.967	6.23239
375.178	6.87605
375.39	5.95146
375.602	6.36986
375.813	5.05556
376.025	5.63789
376.236	6.53656
376.448	6.67113
376.66	6.15193
376.871	6.2042
377.083	7.29054
377.294	7.62288
377.506	6.03935
377.717	7.38891
377.929	6.57256
378.14	6.12982
378.352	6.56745
378.563	6.75906
378.775	7.4112
378.986	5.75876
379.197	6.27426
379.409	5.86648
379.62	6.84992
379.832	6.81665
380.043	6.17938
380.254	6.63827
380.466	5.75787
380.677	8.59619
380.888	7.71388
381.1	8.3087
381.311	8.27694
381.522	6.72159
381.733	8.45011
381.945	6.57685
382.156	6.43846
382.367	6.15171
382.578	8.54495
382.789	8.65742
383.001	6.0835
383.212	7.63301
383.423	7.9013
383.634	7.54112
383.845	7.35303
384.056	6.59006
384.267	6.8343
384.478	6.7877
384.69	6.07463
384.901	7.06078
385.112	7.00111
385.323	8.05592
385.534	7.04706
385.745	7.05806
385.956	6.9502
386.167	6.27001
386.378	7.19232
386.588	6.49687
386.799	6.36828
387.01	5.92501
387.221	7.44857
387.432	6.92544
387.643	7.89577
387.854	6.72866
388.065	6.55288
388.275	6.81164
388.486	6.49789
388.697	6.92565
388.908	6.54559
389.119	7.68609
389.329	7.89231
389.54	7.08038
389.751	7.13236
389.962	7.9018
390.172	7.17493
390.383	7.01451
390.594	6.65806
390.804	6.82732
391.015	6.88849
391.226	7.34662
391.436	7.62599
391.647	7.42836
391.858	7.55138
392.068	6.22307
392.279	6.46444
392.489	7.37485
392.7	7.81694
392.91	6.7924
393.121	6.71898
393.331	7.46074
393.542	7.95
393.752	7.74088
393.963	7.63058
394.173	7.44397
394.384	7.60015
394.594	7.41689
394.804	6.50562
395.015	7.38697
395.225	7.52255
395.436	6.63856
395.646	7.4817
395.856	6.87591
396.067	6.19687
396.277	7.82651
396.487	7.31634
396.697	7.48384
396.908	7.50519
397.118	7.52826
397.328	7.36174
397.538	7.85991
397.749	6.74803
397.959	7.74179
398.169	7.54595
398.379	6.49171
398.589	7.72436
398.8	7.5448
399.01	7.52915
399.22	7.19123
399.43	8.79943
399.64	7.34797
399.85	7.68229
400.06	7.47683
400.27	6.76046
400.48	7.28515
400.69	8.11855
400.9	6.93934
401.11	6.51211
401.32	7.84671
401.53	6.97294
401.74	8.34352
401.95	7.79094
402.16	7.0418
402.37	7.63306
402.58	7.32257
402.79	7.82275
403	8.29917
403.209	7.16684
403.419	8.3364
403.629	7.08779
403.839	8.26421
404.049	8.24833
404.258	7.31419
404.468	7.19413
404.678	7.93781
404.888	8.46433
405.097	7.47915
405.307	7.47575
405.517	8.05026
405.727	7.87362
405.936	7.45083
406.146	7.82698
406.356	8.41197
406.565	7.56206
406.775	7.34454
406.984	7.2251
407.194	8.71491
407.404	7.48322
407.613	7.95987
407.823	7.93502
408.032	8.21081
408.242	8.27465
408.451	7.38431
408.661	7.54
408.87	8.82036
409.08	7.16657
409.289	7.9713
409.499	7.9293
409.708	7.81979
409.918	6.59515
410.127	8.04494
410.336	8.74243
410.546	8.25803
410.755	7.53028
410.964	7.56469
411.174	7.12617
411.383	8.08458
411.592	7.97473
411.802	7.19335
412.011	8.11341
412.22	7.58272
412.429	8.77483
412.639	8.72631
412.848	8.4665
413.057	8.59786
413.266	8.64735
413.475	7.90941
413.685	8.15978
413.894	8.46698
414.103	8.61793
414.312	8.53347
414.521	7.97837
414.73	7.90437
414.939	9.43346
415.148	8.44224
415.357	8.2987
415.566	8.11721
415.776	8.09848
415.985	8.09047
416.194	8.70333
416.403	9.47935
416.611	7.5559
416.82	8.1565
417.029	8.52179
417.238	8.13741
417.447	8.07147
417.656	8.38148
417.865	8.23707
418.074	8.55323
418.283	8.57927
418.492	9.20019
418.7	8.98741
418.909	9.88205
419.118	9.05471
419.327	9.42578
419.536	9.30937
419.744	9.35494
419.953	10.56932
420.162	10.76077
420.371	10.15316
420.579	10.69342
420.788	11.51833
420.997	11.56998
421.205	11.75499
421.414	11.52579
421.623	11.63996
421.831	11.17838
422.04	11.57055
422.249	10.76165
422.457	11.18296
422.666	10.34335
422.874	11.16695
423.083	11.33414
423.291	11.34465
423.5	11.3961
423.708	11.70029
423.917	12.09521
424.125	11.6462
424.334	11.51573
424.542	12.95172
424.751	12.40964
424.959	12.0252
425.167	12.09967
425.376	11.86679
425.584	10.56958
425.793	10.51057
426.001	9.64237
426.209	9.72669
426.418	8.82832
426.626	8.5205
