Data from WindowProjectSample_Transmission__64__00064__07940449024402014.txt Node

Date: Mon May 05 18:31:16 EDT 2025
User: jessi
Spectrometer: SR400872
Trigger mode: 0
Integration Time (sec): 5.000010E-1
Scans to average: 20
Electric dark correction enabled: true
Nonlinearity correction enabled: true
Boxcar width: 0
XAxis mode: Wavelengths
Number of Pixels in Spectrum: 3648
>>>>>Begin Spectral Data<<<<<
184.909	20663.72448
185.132	-5258.19704
185.355	-3061.02528
185.578	-17919.17351
185.801	1790.42669
186.024	10440.94774
186.247	-1619.84018
186.47	1455.51145
186.693	328.99331
186.916	352.51277
187.139	-3814.67062
187.362	3412.51016
187.585	4099.27757
187.808	3301.45582
188.031	37.32235
188.254	-54501.42648
188.476	-778.05796
188.699	6381.7939
188.922	728.6733
189.145	-15354.61099
189.368	-706.40587
189.591	-1329.06965
189.813	2937.29795
190.036	-54281.08615
190.259	-901.88707
190.482	-4185.35482
190.705	6911.91719
190.927	-2523.65995
191.15	13530.59767
191.373	3284.22372
191.595	-8584.04915
191.818	-4204.79579
192.041	-6386.82294
192.263	-3322.91365
192.486	-947.89021
192.709	-4038.12019
192.931	7747.92226
193.154	-28274.84582
193.377	-2794.63073
193.599	-2449.74333
193.822	-9459.20935
194.044	-1984.10583
194.267	1034.17252
194.489	276.80178
194.712	-44094.55495
194.934	-32243.87152
195.157	1234.04346
195.379	1388.52428
195.602	-6993.64581
195.824	-1389.55746
196.047	-9105.46609
196.269	2674.84873
196.492	-6776.5523
196.714	26296.64556
196.936	-8479.16535
197.159	-1180.37004
197.381	1070.19697
197.604	480.8228
197.826	11917.63725
198.048	-10611.5972
198.271	-2844.24728
198.493	7776.32589
198.715	2267.65154
198.938	-501.00417
199.16	6644.86758
199.382	-102104.10445
199.604	2849.54198
199.827	-1043.09615
200.049	-2956.80772
200.271	13518.64624
200.493	1182.62394
200.715	-36051.58353
200.938	-6258.77606
201.16	-4231.32953
201.382	19899.20101
201.604	2340.45522
201.826	2250.61953
202.048	-1999.54813
202.27	-1908.35822
202.492	-36503.27691
202.715	2833.9748
202.937	-4413.49639
203.159	-6298.14316
203.381	1539.08244
203.603	6562.13037
203.825	6767.86265
204.047	2279.58464
204.269	-2842.51727
204.491	2347.46022
204.713	5637.72228
204.935	-490217.03531
205.156	1197.83766
205.378	-3149.02523
205.6	1644.34865
205.822	154028.68716
206.044	-1006.83658
206.266	1583.19872
206.488	4829.10839
206.71	-5219.14007
206.932	1045.43719
207.153	12204.19197
207.375	-6568.68846
207.597	-38228.69804
207.819	-2822.77792
208.041	2436.58414
208.262	435.69984
208.484	721.11464
208.706	-799.96779
208.927	-811.0388
209.149	552.77182
209.371	-2976.7044
209.593	-236.32329
209.814	-788.11208
210.036	583.24826
210.258	-674.13118
210.479	1652.77327
210.701	1657.30454
210.922	3430.82568
211.144	-3672.58388
211.366	2116.74291
211.587	6931.80899
211.809	-8225.46427
212.03	2391.47585
212.252	449.2801
212.473	2053.60927
212.695	-6357.29901
212.916	2839.63373
213.138	-662.94082
213.359	3780.52109
213.581	4976.47113
213.802	-889.42414
214.024	1107.81925
214.245	2180.93285
214.466	2821.35521
214.688	-3086.46089
214.909	-1170.07009
215.131	-1728.15629
215.352	-3111.58829
215.573	14651.70219
215.795	4981.15949
216.016	5347.96224
216.237	863.93473
216.459	3488.87373
216.68	1822.16157
216.901	5142.29071
217.122	-3066.37247
217.344	-11739.53864
217.565	3408.7974
217.786	9042.99196
218.007	15214.15653
218.228	-667.37386
218.45	5800.45885
218.671	782.28261
218.892	36993.63771
219.113	1570.34327
219.334	-273.18881
219.555	9234.0503
219.776	3187.133
219.997	23153.57774
220.219	2735.59453
220.44	-11466.64402
220.661	481.5126
220.882	1524.55687
221.103	-1179.72029
221.324	2120.56764
221.545	2274.0063
221.766	-9126.81453
221.987	955.41516
222.208	1743.17202
222.429	4319.16056
222.65	165.222
222.87	17150.71819
223.091	752.50024
223.312	572.87993
223.533	1357.01898
223.754	1466.51564
223.975	1367.92718
224.196	2003.15808
224.417	1315.07401
224.637	588.68814
224.858	80.07904
225.079	1113.83562
225.3	690.17798
225.521	3774.34161
225.741	465.83306
225.962	507.29545
226.183	145.13273
226.404	662.62398
226.624	443.63896
226.845	654.73299
227.066	409.57987
227.286	250.86429
227.507	138.26473
227.728	115.65736
227.948	247.93929
228.169	71.90128
228.389	82.64647
228.61	45.83111
228.831	63.65198
229.051	1.22458
229.272	38.10071
229.492	57.91621
229.713	11.85316
229.933	37.11061
230.154	32.17487
230.374	53.73313
230.595	38.14358
230.815	26.00754
231.036	39.69677
231.256	-8.46045
231.477	67.87377
231.697	35.39106
231.917	40.14791
232.138	55.39701
232.358	113.10214
232.579	103.58493
232.799	22.0053
233.019	97.6538
233.24	113.28171
233.46	42.36981
233.68	63.01235
233.901	42.25181
234.121	27.24613
234.341	10.84809
234.561	-4.87825
234.782	18.5479
235.002	66.49836
235.222	-4.42818
235.442	63.43436
235.662	33.18349
235.883	61.39253
236.103	48.4971
236.323	35.6305
236.543	27.02584
236.763	39.81979
236.983	43.02062
237.203	40.69547
237.423	59.8581
237.643	88.49727
237.864	72.65426
238.084	19.72252
238.304	27.08335
238.524	46.88894
238.744	39.58403
238.964	74.63482
239.184	60.46252
239.404	64.39885
239.624	36.64721
239.843	58.82491
240.063	36.1751
240.283	21.60035
240.503	26.39588
240.723	25.01771
240.943	14.47923
241.163	20.49623
241.383	14.50687
241.603	6.80723
241.822	10.14851
242.042	6.24741
242.262	8.18025
242.482	9.27478
242.702	10.25664
242.921	2.6592
243.141	6.87139
243.361	6.34668
243.581	9.43568
243.8	7.34702
244.02	5.02876
244.24	9.6941
244.459	9.06661
244.679	17.80611
244.899	10.98069
245.118	12.73257
245.338	11.79235
245.558	13.43607
245.777	8.60723
245.997	10.67417
246.216	10.28498
246.436	6.52582
246.655	4.63921
246.875	3.02014
247.094	6.1128
247.314	2.19779
247.533	3.61853
247.753	4.26278
247.972	3.42424
248.192	1.23025
248.411	1.57732
248.631	3.62071
248.85	4.87017
249.07	3.76443
249.289	5.87218
249.508	4.81801
249.728	6.96906
249.947	6.82923
250.166	8.48956
250.386	4.38493
250.605	6.89689
250.824	11.08427
251.044	7.97865
251.263	28.44479
251.482	15.0864
251.701	11.43693
251.921	-0.503
252.14	3.44472
252.359	3.87308
252.578	10.22273
252.798	3.31031
253.017	8.96606
253.236	4.14099
253.455	5.95472
253.674	10.39111
253.893	5.06616
254.112	8.17213
254.331	11.62943
254.551	8.52758
254.77	3.32386
254.989	12.99939
255.208	9.64586
255.427	14.62074
255.646	11.84392
255.865	21.6043
256.084	9.11002
256.303	10.71008
256.522	13.16753
256.741	3.43773
256.96	3.45777
257.179	7.57939
257.397	10.89914
257.616	6.12855
257.835	5.94941
258.054	15.09011
258.273	10.35949
258.492	11.20124
258.711	6.53839
258.93	3.1911
259.148	4.93707
259.367	4.65192
259.586	5.66392
259.805	2.30141
260.023	5.28208
260.242	3.80895
260.461	2.83225
260.68	1.46031
260.898	4.31399
261.117	1.33672
261.336	0.86586
261.554	3.62694
261.773	3.50689
261.992	0.73973
262.21	3.50288
262.429	3.49535
262.648	7.27483
262.866	8.03573
263.085	5.52545
263.303	4.80343
263.522	8.67153
263.74	8.72866
263.959	15.43618
264.178	7.20029
264.396	6.38901
264.615	4.42408
264.833	10.34881
265.051	8.92517
265.27	10.84163
265.488	10.98668
265.707	6.26915
265.925	10.69505
266.144	4.81438
266.362	5.43785
266.58	5.70526
266.799	5.05068
267.017	6.15577
267.235	5.27809
267.454	3.24943
267.672	2.02227
267.89	3.97817
268.109	4.39045
268.327	4.20297
268.545	1.0015
268.763	3.82522
268.982	1.59541
269.2	4.34393
269.418	3.18941
269.636	1.90173
269.854	4.71508
270.073	3.23354
270.291	2.03428
270.509	1.79711
270.727	4.14074
270.945	7.36341
271.163	7.0022
271.381	1.34112
271.599	3.1232
271.817	5.29904
272.036	1.71879
272.254	3.02378
272.472	2.48644
272.69	2.56781
272.908	2.4233
273.126	4.55418
273.344	5.35941
273.562	1.83277
273.779	2.60998
273.997	3.89667
274.215	4.21248
274.433	2.8692
274.651	4.47838
274.869	4.60633
275.087	2.91709
275.305	3.93118
275.523	2.37414
275.74	2.91404
275.958	5.36218
276.176	8.25993
276.394	2.5802
276.612	3.31467
276.829	3.07916
277.047	2.80717
277.265	2.90445
277.483	3.52974
277.7	4.24446
277.918	3.53447
278.136	6.36263
278.353	3.05779
278.571	1.7499
278.789	4.32484
279.006	0.9421
279.224	2.99399
279.442	5.15017
279.659	3.55876
279.877	2.39818
280.094	5.8281
280.312	1.00724
280.529	3.35286
280.747	0.93089
280.964	2.52297
281.182	5.98457
281.399	2.59913
281.617	3.79861
281.834	2.47258
282.052	1.96404
282.269	3.32768
282.487	2.4295
282.704	2.04836
282.921	2.31203
283.139	3.24267
283.356	3.98879
283.574	3.91556
283.791	1.78558
284.008	5.59486
284.226	2.96871
284.443	3.37977
284.66	4.16388
284.877	3.43643
285.095	1.99389
285.312	1.6964
285.529	0.9052
285.746	0.79096
285.964	2.05674
286.181	1.3835
286.398	1.91
286.615	2.63776
286.832	2.5757
287.05	0.55928
287.267	1.8719
287.484	1.91071
287.701	2.62511
287.918	2.7095
288.135	2.64972
288.352	1.22643
288.569	1.40136
288.786	2.38419
289.003	1.92355
289.22	3.07002
289.437	1.63037
289.654	3.01835
289.871	3.06184
290.088	2.85587
290.305	2.28211
290.522	1.81497
290.739	2.06612
290.956	3.26252
291.173	3.5551
291.39	3.44504
291.607	2.32731
291.824	1.67716
292.04	1.13556
292.257	2.86212
292.474	3.21351
292.691	2.00788
292.908	0.97289
293.125	1.77672
293.341	1.21309
293.558	4.88882
293.775	1.95113
293.992	1.91442
294.208	0.75369
294.425	1.26826
294.642	1.90962
294.858	2.72178
295.075	0.63354
295.292	1.96077
295.508	2.2378
295.725	4.14187
295.942	1.65396
296.158	1.16873
296.375	1.97446
296.591	1.60643
296.808	1.6936
297.024	2.0211
297.241	2.23222
297.458	2.42689
297.674	0.15717
297.891	1.8083
298.107	1.46077
298.323	1.08811
298.54	3.10172
298.756	1.28836
298.973	0.67637
299.189	3.08428
299.406	1.21228
299.622	2.71841
299.838	2.72842
300.055	2.6993
300.271	0.56375
300.487	1.00991
300.704	1.28365
300.92	0.79979
301.136	4.17699
301.353	2.66476
301.569	1.83272
301.785	2.25852
302.001	2.69387
302.218	2.2406
302.434	2.33448
302.65	0.71453
302.866	1.66292
303.083	4.02419
303.299	3.7891
303.515	2.07338
303.731	2.26249
303.947	0.64395
304.163	1.2663
304.379	2.18735
304.595	2.47739
304.812	1.24696
305.028	1.25132
305.244	1.75623
305.46	2.56603
305.676	2.7115
305.892	3.25015
306.108	2.23618
306.324	1.5236
306.54	3.74197
306.756	2.57944
306.972	2.48658
307.187	1.84169
307.403	3.39969
307.619	1.69043
307.835	3.17011
308.051	3.41543
308.267	0.92456
308.483	2.83277
308.699	2.455
308.914	1.9908
309.13	1.8133
309.346	0.65188
309.562	1.07311
309.778	0.75808
309.993	2.45082
310.209	2.00933
310.425	1.01807
310.641	1.79984
310.856	1.01134
311.072	0.97079
311.288	1.83563
311.503	1.97324
311.719	0.30728
311.935	0.29106
312.15	2.29492
312.366	1.86674
312.581	2.32822
312.797	1.75312
313.013	2.66805
313.228	1.2524
313.444	1.81354
313.659	1.30126
313.875	2.43712
314.09	1.66503
314.306	3.23465
314.521	2.72241
314.737	2.61667
314.952	2.04825
315.168	1.95387
315.383	2.30181
315.599	1.70028
315.814	1.58234
316.029	2.56609
316.245	0.84289
316.46	0.55266
316.675	3.08914
316.891	3.49476
317.106	4.59472
317.321	2.29198
317.537	2.5925
317.752	2.74133
317.967	2.79507
318.183	1.29796
318.398	1.60283
318.613	2.71698
318.828	3.37302
319.043	2.74988
319.259	1.85137
319.474	2.23726
319.689	3.18166
319.904	0.65119
320.119	2.80568
320.334	2.3299
320.549	1.80438
320.765	3.04184
320.98	2.32749
321.195	2.64926
321.41	1.9548
321.625	2.80097
321.84	3.9494
322.055	3.7041
322.27	1.39982
322.485	1.11456
322.7	2.43759
322.915	2.86192
323.13	1.4379
323.345	3.47449
323.56	3.15925
323.775	2.65495
323.989	2.37899
324.204	2.32278
324.419	3.1058
324.634	1.00926
324.849	1.91718
325.064	5.19218
325.279	3.00411
325.493	2.4171
325.708	2.90312
325.923	1.42394
326.138	1.57288
326.352	3.54637
326.567	3.01097
326.782	1.69429
326.997	1.54253
327.211	2.7269
327.426	2.50736
327.641	1.84798
327.855	0.74582
328.07	2.53435
328.285	3.68842
328.499	1.77432
328.714	2.3421
328.928	2.71368
329.143	1.94489
329.358	3.03536
329.572	3.10742
329.787	3.24507
330.001	4.5038
330.216	1.1687
330.43	3.90112
330.645	3.76371
330.859	2.95134
331.074	1.495
331.288	2.38002
331.503	3.41678
331.717	1.36041
331.931	2.37706
332.146	2.39829
332.36	3.87627
332.575	2.56204
332.789	2.42597
333.003	2.41371
333.218	2.6526
333.432	1.67708
333.646	3.06087
333.86	3.70263
334.075	3.62518
334.289	1.76435
334.503	1.34141
334.717	2.59282
334.932	2.55532
335.146	3.18132
335.36	1.82257
335.574	2.72817
335.788	2.6542
336.003	3.14398
336.217	2.71453
336.431	2.72995
336.645	1.70167
336.859	1.21945
337.073	2.10201
337.287	2.46317
337.501	1.15849
337.715	2.51449
337.929	3.07251
338.143	1.22991
338.357	2.16047
338.571	1.59677
338.785	2.78451
338.999	1.91593
339.213	1.80435
339.427	1.04765
339.641	3.49139
339.855	1.98529
340.069	1.78801
340.283	3.15557
340.497	3.96405
340.711	2.6075
340.924	2.27144
341.138	1.45441
341.352	1.09258
341.566	2.50051
341.78	0.91393
341.993	1.94945
342.207	1.53366
342.421	2.42469
342.635	2.07801
342.848	1.92588
343.062	0.5481
343.276	1.66752
343.49	3.96932
343.703	1.62768
343.917	3.23568
344.131	3.14207
344.344	1.67691
344.558	2.01414
344.771	1.33596
344.985	3.66196
345.199	3.59921
345.412	2.51538
345.626	2.58945
345.839	0.96754
346.053	1.27846
346.266	1.40605
346.48	2.85485
346.693	2.51558
346.907	2.50347
347.12	1.47538
347.334	2.43612
347.547	2.57247
347.76	1.93724
347.974	3.31626
348.187	2.5765
348.401	1.96738
348.614	1.71406
348.827	1.91996
349.041	2.65655
349.254	1.00137
349.467	1.94793
349.681	1.34929
349.894	1.70527
350.107	3.23332
350.32	3.82101
350.534	1.21656
350.747	1.96492
350.96	1.52692
351.173	1.68424
351.386	2.03874
351.6	1.94063
351.813	1.76871
352.026	2.12199
352.239	1.29331
352.452	2.05559
352.665	3.0921
352.878	2.25365
353.092	3.88273
353.305	2.97594
353.518	2.53124
353.731	1.55523
353.944	3.33868
354.157	1.94658
354.37	1.62781
354.583	1.39645
354.796	1.13235
355.009	3.05398
355.222	2.46537
355.435	2.32803
355.647	3.09058
355.86	1.58976
356.073	2.37432
356.286	1.87402
356.499	2.90778
356.712	2.62146
356.925	2.79676
357.138	2.8703
357.35	1.55262
357.563	2.09875
357.776	2.37492
357.989	2.07501
358.201	2.61301
358.414	2.46162
358.627	3.30027
358.84	2.15568
359.052	1.4123
359.265	1.73412
359.478	3.1593
359.69	0.42521
359.903	2.86317
360.116	3.07197
360.328	1.04457
360.541	2.96143
360.753	1.63089
360.966	1.9959
361.179	2.06785
361.391	1.95498
361.604	1.74297
361.816	1.99086
362.029	1.81898
362.241	1.71578
362.454	1.97774
362.666	1.66327
362.879	2.49047
363.091	1.99876
363.304	1.7328
363.516	2.20023
363.728	1.47088
363.941	2.70422
364.153	2.19534
364.366	0.9104
364.578	1.59177
364.79	2.5143
365.003	2.33086
365.215	1.8573
365.427	2.79137
365.639	3.04266
365.852	2.45531
366.064	4.08405
366.276	2.06359
366.488	2.70355
366.701	2.08323
366.913	2.22812
367.125	2.15379
367.337	1.77688
367.549	2.01423
367.762	2.41623
367.974	2.43324
368.186	2.00666
368.398	3.01553
368.61	2.8094
368.822	2.84659
369.034	2.33011
369.246	3.0145
369.458	4.6768
369.67	1.86122
369.882	3.82614
370.094	1.19814
370.306	3.64073
370.518	2.27214
370.73	2.0587
370.942	2.05042
371.154	2.47468
371.366	2.25386
371.578	2.80403
371.79	2.09792
372.002	3.35683
372.214	3.99868
372.425	2.56852
372.637	3.52726
372.849	2.85692
373.061	1.25876
373.273	2.90965
373.484	2.72296
373.696	3.19445
373.908	1.20809
374.12	3.47224
374.331	3.01977
374.543	2.21323
374.755	1.96636
374.967	2.78204
375.178	3.25732
375.39	2.39531
375.602	2.76757
375.813	1.65229
376.025	2.0707
376.236	2.85979
376.448	2.95762
376.66	2.47543
376.871	2.47954
377.083	3.62497
377.294	3.91177
377.506	2.53252
377.717	3.7363
377.929	2.94945
378.14	2.47753
378.352	3.13151
378.563	3.09271
378.775	3.86725
378.986	2.18824
379.197	2.86724
379.409	2.29727
379.62	3.35819
379.832	3.21523
380.043	2.69729
380.254	3.13204
380.466	2.28172
380.677	4.97192
380.888	4.33692
381.1	4.72217
381.311	4.73733
381.522	3.03584
381.733	5.02038
381.945	2.98075
382.156	3.03269
382.367	2.75403
382.578	5.0835
382.789	4.94945
383.001	2.74786
383.212	4.25601
383.423	4.3551
383.634	3.97232
383.845	3.73577
384.056	2.92919
384.267	3.28613
384.478	3.22305
384.69	2.50207
384.901	3.54619
385.112	3.45591
385.323	4.46229
385.534	3.60516
385.745	3.59597
385.956	3.48264
386.167	2.76108
386.378	3.76886
386.588	2.85963
386.799	2.93802
387.01	2.34222
387.221	4.0238
387.432	3.34783
387.643	4.6503
387.854	3.21267
388.065	3.25887
388.275	3.29242
388.486	3.08258
388.697	3.3972
388.908	3.12973
389.119	4.18301
389.329	4.56638
389.54	3.61433
389.751	3.8164
389.962	4.47495
390.172	3.67137
390.383	3.48695
390.594	3.22667
390.804	3.34954
391.015	3.38435
391.226	3.82217
391.436	4.06805
391.647	3.96937
391.858	4.18518
392.068	2.75905
392.279	3.11615
392.489	3.90484
392.7	4.43763
392.91	3.32589
393.121	3.34917
393.331	4.11583
393.542	4.61814
393.752	4.31701
393.963	4.23175
394.173	4.06075
394.384	4.33936
394.594	4.01907
394.804	3.26703
395.015	4.11686
395.225	4.18361
395.436	3.26607
395.646	4.26977
395.856	3.65633
396.067	3.0867
396.277	4.53173
396.487	4.22081
396.697	4.24537
396.908	4.28671
397.118	4.42072
397.328	4.2183
397.538	4.71427
397.749	3.60352
397.959	4.66415
398.169	4.40735
398.379	3.26047
398.589	4.57432
398.8	4.31754
399.01	4.21194
399.22	3.97117
399.43	5.64094
399.64	4.1877
399.85	4.56613
400.06	4.21676
400.27	3.76795
400.48	4.14291
400.69	5.1713
400.9	3.87051
401.11	3.65839
401.32	4.73933
401.53	3.98023
401.74	5.31642
401.95	4.70967
402.16	3.85346
402.37	4.57888
402.58	4.14795
402.79	4.80117
403	5.20991
403.209	4.08815
403.419	5.16304
403.629	3.97788
403.839	5.12448
404.049	5.01809
404.258	4.25277
404.468	4.06652
404.678	4.77289
404.888	5.22178
405.097	4.21156
405.307	4.44736
405.517	4.90135
405.727	4.8227
405.936	4.31221
406.146	4.63335
406.356	5.30364
406.565	4.54044
406.775	4.30041
406.984	4.20826
407.194	5.58388
407.404	4.53273
407.613	5.00783
407.823	5.13296
408.032	5.33245
408.242	5.23374
408.451	4.27748
408.661	4.72568
408.87	5.75656
409.08	4.39261
409.289	5.01194
409.499	4.96738
409.708	4.9354
409.918	3.62168
410.127	4.97606
410.336	5.83376
410.546	5.32148
410.755	4.55917
410.964	4.6099
411.174	4.28355
411.383	5.09503
411.592	4.99831
411.802	4.24746
412.011	5.30742
412.22	4.6977
412.429	5.90479
412.639	5.86969
412.848	5.44121
413.057	5.75689
413.266	5.60337
413.475	4.98454
413.685	5.35139
413.894	5.61251
414.103	5.82205
414.312	5.60972
414.521	4.97663
414.73	5.22226
414.939	6.42663
415.148	5.48261
415.357	5.31515
415.566	5.10211
415.776	5.17081
415.985	5.13822
416.194	5.76914
416.403	6.40013
416.611	4.60524
416.82	5.17822
417.029	5.54958
417.238	5.21063
417.447	5.12366
417.656	5.36911
417.865	5.12247
418.074	5.44767
418.283	5.59806
418.492	6.14074
418.7	6.00855
418.909	6.77517
419.118	5.97953
419.327	6.31809
419.536	6.20106
419.744	6.06154
419.953	7.15797
420.162	7.27891
420.371	6.71478
420.579	6.98024
420.788	7.78772
420.997	7.85691
421.205	7.99782
421.414	7.78739
421.623	7.82296
421.831	7.46819
422.04	7.95595
422.249	7.1901
422.457	7.59986
422.666	6.89312
422.874	7.71806
423.083	7.79228
423.291	7.91018
423.5	7.67752
423.708	7.94644
423.917	8.34858
424.125	7.9605
424.334	7.77641
424.542	9.19443
424.751	8.74341
424.959	8.32435
425.167	8.50559
425.376	8.33477
425.584	7.34502
425.793	7.46924
426.001	6.57549
426.209	6.89686
426.418	6.05882
426.626	5.87868
426.834	5.70559
427.042	6.00107
