Data from WindowProjectSample3_Transmission__14__00014.txt Node

Date: Sun May 04 09:55:57 EDT 2025
User: jessi
Spectrometer: SR400872
Trigger mode: 0
Integration Time (sec): 5.000070E-1
Scans to average: 10
Electric dark correction enabled: true
Nonlinearity correction enabled: true
Boxcar width: 0
XAxis mode: Wavelengths
Number of Pixels in Spectrum: 3648
>>>>>Begin Spectral Data<<<<<
184.909	-5938.043
185.132	10501.70801
185.355	-8444.37699
185.578	-54404.99312
185.801	5841.52199
186.024	-133527.7357
186.247	-835.23779
186.47	1539.76017
186.693	1316.04648
186.916	-439.43993
187.139	-2531904.51727
187.362	-3268.43224
187.585	7402.93708
187.808	1797.51038
188.031	-40.21256
188.254	4907.08131
188.476	-1729.2663
188.699	2492.25217
188.922	513.93487
189.145	-5941.4706
189.368	-4575.17682
189.591	1992.2299
189.813	-147627.31128
190.036	9412.07275
190.259	1330.76258
190.482	5729.75869
190.705	16537.26965
190.927	16850.93991
191.15	-4110.765
191.373	2156.43941
191.595	1585.2313
191.818	16928.83643
192.041	986.99451
192.263	-7840.60919
192.486	-1548.81786
192.709	2816.5898
192.931	-3440.28422
193.154	13582.21585
193.377	2466.29386
193.599	29545.26125
193.822	2091.17818
194.044	2065.76966
194.267	1076.51378
194.489	-6.71676
194.712	3653.4207
194.934	34158.71066
195.157	-562.21233
195.379	10553.71407
195.602	1907.62501
195.824	4689.31207
196.047	6192.22699
196.269	14075.02065
196.492	-11748.26926
196.714	3949.88733
196.936	7196.91372
197.159	10708.47219
197.381	4196.0534
197.604	1865671.13413
197.826	2029.87532
198.048	1907.30827
198.271	9558.62497
198.493	1994.89691
198.715	2669.6261
198.938	8434.27458
199.16	3446.92366
199.382	10136.97917
199.604	10242.68683
199.827	1827.95703
200.049	3043.00087
200.271	20880.57785
200.493	1806.08831
200.715	7325.19375
200.938	8109.62213
201.16	-3838.84857
201.382	32371.14849
201.604	4064.79882
201.826	8213.89033
202.048	4390.37715
202.27	1854.30047
202.492	5854.43141
202.715	19965.21687
202.937	3942.32849
203.159	1524.53937
203.381	2049.22407
203.603	2787.77636
203.825	-1515.67449
204.047	-23720.30997
204.269	3371.10587
204.491	7425.06035
204.713	-1755886.21364
204.935	2273.11801
205.156	3763.88468
205.378	1675.39757
205.6	37662.55629
205.822	4814.34322
206.044	3841.54091
206.266	5797.60668
206.488	1508.84776
206.71	9374.36278
206.932	1429.8323
207.153	29880.45768
207.375	16586.03588
207.597	12524.48468
207.819	38415.93798
208.041	-44334.90176
208.262	1131.47191
208.484	13655.69642
208.706	3651.42025
208.927	2385.73613
209.149	945.27307
209.371	3693.73162
209.593	1099.62045
209.814	10664.14619
210.036	-482422.75798
210.258	1564.59383
210.479	2501.16587
210.701	3562.73377
210.922	-5701.28936
211.144	-3039.54634
211.366	5224.18521
211.587	2497.25651
211.809	5732.81066
212.03	-66939.54521
212.252	488.16934
212.473	893.48576
212.695	761.66943
212.916	1284.73044
213.138	636.41364
213.359	5017.86989
213.581	2830.34282
213.802	916.38752
214.024	7354.83906
214.245	-12968.09661
214.466	481.28933
214.688	3756.95626
214.909	10811.98332
215.131	4460.18751
215.352	2749.27153
215.573	11990.47698
215.795	2179.04617
216.016	1940.26665
216.237	-768951.56231
216.459	1883.72526
216.68	5529.57432
216.901	3305.39789
217.122	782.9343
217.344	2902.2857
217.565	7384.0443
217.786	3536.19096
218.007	891.26413
218.228	2266.47894
218.45	-17955.55783
218.671	46338.05187
218.892	20292.0618
219.113	1710.47565
219.334	6845.28292
219.555	-8040.14969
219.776	1779.78451
219.997	3955.19095
220.219	1119.29645
220.44	1665.82946
220.661	1759.2272
220.882	5544.89931
221.103	1441.25235
221.324	8068.25228
221.545	3145.04644
221.766	3216.56549
221.987	1497.10829
222.208	1028.40089
222.429	2199.65327
222.65	203.44768
222.87	643.38078
223.091	1786.88025
223.312	1017.74368
223.533	2134.2463
223.754	1578.63113
223.975	1646.06262
224.196	1049.06737
224.417	5239.13911
224.637	686.47678
224.858	55.73535
225.079	1150.27895
225.3	612.47008
225.521	2261.02562
225.741	669.0686
225.962	625.22804
226.183	178.04791
226.404	999.32331
226.624	584.86373
226.845	624.79223
227.066	460.49442
227.286	301.8403
227.507	189.9732
227.728	156.78096
227.948	270.6943
228.169	89.02043
228.389	108.96853
228.61	57.92335
228.831	83.77814
229.051	7.71871
229.272	51.44209
229.492	70.37705
229.713	21.17481
229.933	52.85389
230.154	44.28147
230.374	75.83929
230.595	58.97664
230.815	35.94871
231.036	57.77552
231.256	-11.14706
231.477	98.16271
231.697	55.6428
231.917	61.03166
232.138	83.646
232.358	160.20741
232.579	152.12838
232.799	20.33308
233.019	137.57143
233.24	160.41537
233.46	60.51198
233.68	90.29494
233.901	59.47242
234.121	47.0357
234.341	19.19115
234.561	-2.42767
234.782	33.79521
235.002	97.73765
235.222	-0.027
235.442	89.5447
235.662	49.36862
235.883	91.51539
236.103	76.45062
236.323	55.87168
236.543	41.52227
236.763	60.49534
236.983	61.47074
237.203	63.62753
237.423	92.95692
237.643	124.65501
237.864	111.57981
238.084	28.45073
238.304	40.82198
238.524	66.80867
238.744	60.9715
238.964	98.0535
239.184	88.23997
239.404	95.53093
239.624	49.45858
239.843	82.68727
240.063	49.03648
240.283	34.39508
240.503	36.58574
240.723	36.30168
240.943	20.53223
241.163	27.58609
241.383	19.99122
241.603	9.87649
241.822	12.40539
242.042	9.15341
242.262	11.8762
242.482	13.5267
242.702	16.15656
242.921	4.75095
243.141	10.98307
243.361	9.6718
243.581	14.41453
243.8	11.71811
244.02	8.76596
244.24	15.47267
244.459	14.62402
244.679	28.39731
244.899	19.15779
245.118	21.3524
245.338	18.64183
245.558	22.44358
245.777	11.64289
245.997	14.13376
246.216	14.96728
246.436	8.81623
246.655	5.56283
246.875	4.52532
247.094	8.39713
247.314	3.42838
247.533	5.68228
247.753	6.75594
247.972	5.29524
248.192	1.8117
248.411	3.1721
248.631	5.62351
248.85	7.15555
249.07	6.59631
249.289	9.64691
249.508	7.38966
249.728	11.8165
249.947	11.4079
250.166	14.42496
250.386	8.13557
250.605	11.97087
250.824	17.36243
251.044	12.29003
251.263	36.51195
251.482	20.8186
251.701	17.62535
251.921	0.3745
252.14	5.94296
252.359	6.67925
252.578	15.42657
252.798	5.40069
253.017	13.9776
253.236	7.04646
253.455	9.4833
253.674	18.56685
253.893	8.35872
254.112	12.33929
254.331	18.42437
254.551	15.09119
254.77	6.83962
254.989	19.72213
255.208	16.82864
255.427	22.52362
255.646	20.25167
255.865	32.41262
256.084	13.24831
256.303	15.43612
256.522	19.55552
256.741	4.5626
256.96	4.73933
257.179	13.41791
257.397	16.98729
257.616	8.85144
257.835	9.66155
258.054	22.78643
258.273	15.06081
258.492	15.74843
258.711	10.03492
258.93	4.3289
259.148	6.29451
259.367	6.42245
259.586	7.75192
259.805	3.50178
260.023	7.17272
260.242	5.56577
260.461	4.03933
260.68	2.23915
260.898	6.50664
261.117	2.25812
261.336	1.50819
261.554	5.96733
261.773	5.5801
261.992	1.5487
262.21	5.49831
262.429	6.71383
262.648	11.18995
262.866	12.00533
263.085	8.62253
263.303	7.90152
263.522	12.85963
263.74	13.74511
263.959	22.41393
264.178	11.61219
264.396	9.90134
264.615	7.37457
264.833	17.13119
265.051	14.3697
265.27	15.61538
265.488	15.80476
265.707	9.80147
265.925	15.69574
266.144	7.37727
266.362	8.71552
266.58	8.59313
266.799	7.58578
267.017	9.04436
267.235	7.77413
267.454	4.97165
267.672	3.09897
267.89	6.88726
268.109	7.10267
268.327	6.71165
268.545	1.86834
268.763	5.7203
268.982	2.97755
269.2	7.31672
269.418	4.45547
269.636	3.7345
269.854	7.47496
270.073	5.28883
270.291	2.62292
270.509	2.95881
270.727	6.99108
270.945	10.78955
271.163	10.93027
271.381	2.52777
271.599	4.16521
271.817	7.81986
272.036	2.52002
272.254	4.74692
272.472	3.77634
272.69	3.74676
272.908	4.19268
273.126	6.27873
273.344	8.15586
273.562	3.12754
273.779	4.14376
273.997	6.16572
274.215	6.33775
274.433	4.68751
274.651	7.38889
274.869	7.2846
275.087	4.41123
275.305	6.32787
275.523	4.30137
275.74	4.52281
275.958	8.43105
276.176	12.13034
276.394	3.77036
276.612	5.02108
276.829	5.57948
277.047	4.5919
277.265	4.89285
277.483	5.6289
277.7	6.46699
277.918	5.38749
278.136	9.37904
278.353	4.70107
278.571	2.97222
278.789	7.57284
279.006	1.82385
279.224	4.38432
279.442	7.46039
279.659	5.46113
279.877	3.96509
280.094	8.51418
280.312	2.02941
280.529	5.68522
280.747	1.95451
280.964	3.66648
281.182	8.6503
281.399	4.22036
281.617	5.77482
281.834	4.00188
282.052	2.93576
282.269	4.83913
282.487	3.87391
282.704	3.44145
282.921	3.42187
283.139	5.1968
283.356	6.43199
283.574	5.72246
283.791	3.08357
284.008	8.07878
284.226	4.62566
284.443	5.06635
284.66	6.08938
284.877	4.97635
285.095	3.05447
285.312	2.37498
285.529	1.41653
285.746	1.21461
285.964	3.0934
286.181	2.0812
286.398	3.06403
286.615	4.09372
286.832	3.82822
287.05	1.17924
287.267	2.84885
287.484	2.79763
287.701	4.25332
287.918	4.14692
288.135	4.10206
288.352	1.74309
288.569	2.34826
288.786	3.84741
289.003	3.08042
289.22	4.39369
289.437	2.54394
289.654	4.37941
289.871	4.45439
290.088	4.39658
290.305	3.5483
290.522	2.74864
290.739	3.16452
290.956	4.64956
291.173	5.64536
291.39	5.36878
291.607	3.64894
291.824	2.98165
292.04	1.96301
292.257	4.46468
292.474	5.12596
292.691	3.22629
292.908	1.77832
293.125	2.58867
293.341	1.65176
293.558	7.83164
293.775	3.05197
293.992	3.38004
294.208	1.45487
294.425	2.25993
294.642	2.93564
294.858	5.05221
295.075	1.39918
295.292	3.1806
295.508	3.9278
295.725	5.66714
295.942	3.26766
296.158	2.50378
296.375	3.88513
296.591	3.25626
296.808	3.60409
297.024	4.32765
297.241	4.68318
297.458	5.10558
297.674	2.13848
297.891	4.53428
298.107	4.55457
298.323	3.77828
298.54	6.75893
298.756	4.67019
298.973	3.61181
299.189	7.42733
299.406	5.15669
299.622	7.45714
299.838	7.74895
300.055	7.36722
300.271	4.94948
300.487	5.46317
300.704	6.14513
300.92	5.3368
301.136	10.23402
301.353	8.75794
301.569	7.41257
301.785	7.97711
302.001	8.83394
302.218	8.40314
302.434	8.99486
302.65	6.569
302.866	7.7205
303.083	11.35306
303.299	11.52303
303.515	8.67601
303.731	9.52523
303.947	7.03867
304.163	8.63379
304.379	9.01727
304.595	9.72021
304.812	8.16757
305.028	8.37956
305.244	8.41589
305.46	10.20865
305.676	10.59364
305.892	11.39854
306.108	10.44407
306.324	9.29424
306.54	12.12351
306.756	10.32981
306.972	9.73261
307.187	9.57068
307.403	11.37282
307.619	9.20708
307.835	11.37293
308.051	11.74418
308.267	8.57441
308.483	12.06858
308.699	10.83176
308.914	10.70691
309.13	10.30321
309.346	9.04688
309.562	9.4887
309.778	9.24378
309.993	11.45341
310.209	11.16538
310.425	9.55616
310.641	11.08091
310.856	10.00625
311.072	9.93972
311.288	11.09373
311.503	12.03093
311.719	9.35349
311.935	9.41313
312.15	12.22569
312.366	11.901
312.581	12.20778
312.797	11.78782
313.013	12.65946
313.228	10.71888
313.444	11.01086
313.659	10.36826
313.875	11.98691
314.09	11.14239
314.306	13.03962
314.521	12.58582
314.737	12.36747
314.952	11.70014
315.168	11.61163
315.383	12.07783
315.599	10.68993
315.814	11.34417
316.029	12.3757
316.245	10.38807
316.46	9.05892
316.675	13.26157
316.891	13.95177
317.106	15.79024
317.321	11.857
317.537	12.62327
317.752	12.75222
317.967	12.72519
318.183	10.67623
318.398	11.47868
318.613	13.17134
318.828	13.9139
319.043	12.72744
319.259	11.68985
319.474	12.27334
319.689	13.63636
319.904	9.21021
320.119	13.61581
320.334	12.07132
320.549	11.68867
320.765	14.00919
320.98	12.54458
321.195	12.42452
321.41	12.47233
321.625	13.24053
321.84	14.66061
322.055	14.13172
322.27	11.74932
322.485	10.59522
322.7	13.07587
322.915	13.6518
323.13	12.16491
323.345	15.17277
323.56	13.92945
323.775	14.19693
323.989	13.52792
324.204	13.56114
324.419	14.65411
324.634	11.7069
324.849	13.38731
325.064	16.7132
325.279	15.05311
325.493	14.18218
325.708	14.97107
325.923	12.65113
326.138	13.38023
326.352	15.84308
326.567	15.24203
326.782	12.99063
326.997	13.27908
327.211	14.56565
327.426	14.18637
327.641	13.70059
327.855	11.94698
328.07	14.90335
328.285	16.65711
328.499	13.28554
328.714	14.36379
328.928	14.29545
329.143	14.04119
329.358	15.6016
329.572	15.66298
329.787	16.36846
330.001	17.79175
330.216	12.1984
330.43	17.27152
330.645	15.62006
330.859	15.40267
331.074	12.87316
331.288	14.71837
331.503	16.87328
331.717	12.71632
331.931	14.49286
332.146	15.22984
332.36	17.55721
332.575	15.3353
332.789	15.19528
333.003	15.56791
333.218	15.80261
333.432	14.55607
333.646	16.29648
333.86	17.74368
334.075	17.58967
334.289	14.71422
334.503	13.28364
334.717	16.52959
334.932	15.38507
335.146	16.54691
335.36	14.29401
335.574	16.97404
335.788	15.91999
336.003	16.71323
336.217	17.14702
336.431	16.34407
336.645	15.02398
336.859	14.07401
337.073	15.51658
337.287	16.13952
337.501	13.74926
337.715	16.63082
337.929	16.42968
338.143	14.846
338.357	15.79992
338.571	15.86092
338.785	17.82558
338.999	15.92433
339.213	16.05107
339.427	15.59033
339.641	18.37003
339.855	15.85519
340.069	15.51186
340.283	17.8885
340.497	18.80712
340.711	17.71602
340.924	16.92871
341.138	15.82911
341.352	15.01448
341.566	17.0436
341.78	15.24482
341.993	16.44598
342.207	15.93421
342.421	17.65611
342.635	16.90084
342.848	16.67907
343.062	14.00326
343.276	16.49346
343.49	19.85273
343.703	16.14259
343.917	18.74997
344.131	18.966
344.344	16.44428
344.558	17.20126
344.771	16.10976
344.985	19.22961
345.199	20.04538
345.412	18.51391
345.626	18.59877
345.839	15.83085
346.053	16.70559
346.266	16.9364
346.48	18.57026
346.693	18.59703
346.907	18.56742
347.12	16.91868
347.334	18.11564
347.547	18.25853
347.76	17.7568
347.974	19.37527
348.187	18.3408
348.401	17.60417
348.614	16.49402
348.827	17.6958
349.041	18.47046
349.254	15.62879
349.467	17.56551
349.681	17.17632
349.894	16.81541
350.107	19.54668
350.32	20.81988
350.534	17.10955
350.747	18.01955
350.96	17.85529
351.173	17.88656
351.386	17.98635
351.6	17.50095
351.813	18.20546
352.026	18.05366
352.239	17.27251
352.452	17.90649
352.665	20.09323
352.878	18.00113
353.092	21.18786
353.305	19.58579
353.518	19.03583
353.731	17.43568
353.944	19.62797
354.157	18.4197
354.37	18.44915
354.583	17.33605
354.796	17.61806
355.009	20.38201
355.222	19.26055
355.435	19.04013
355.647	20.59287
355.86	18.54516
356.073	19.27175
356.286	18.62104
356.499	20.74229
356.712	20.54507
356.925	20.3908
357.138	20.70041
357.35	18.84176
357.563	19.19205
357.776	20.00362
357.989	19.94997
358.201	20.59593
358.414	20.32637
358.627	21.5253
358.84	19.80423
359.052	18.63535
359.265	18.7996
359.478	21.22391
359.69	17.25756
359.903	21.13369
360.116	21.10935
360.328	18.45705
360.541	20.8643
360.753	19.70784
360.966	19.9093
361.179	20.34338
361.391	20.24306
361.604	19.85512
361.816	20.51866
362.029	20.4673
362.241	19.94762
362.454	20.7562
362.666	20.06838
362.879	21.58121
363.091	20.71716
363.304	20.23888
363.516	20.20317
363.728	19.48512
363.941	20.93931
364.153	20.7576
364.366	18.26507
364.578	19.30648
364.79	20.86534
365.003	20.95174
365.215	19.67429
365.427	21.18628
365.639	21.73071
365.852	20.55956
366.064	22.00107
366.276	20.31573
366.488	20.72692
366.701	20.39447
366.913	20.12027
367.125	20.31739
367.337	19.72143
367.549	20.06411
367.762	20.1037
367.974	20.27865
368.186	20.54924
368.398	21.66945
368.61	20.85894
368.822	21.28996
369.034	20.05131
369.246	21.61496
369.458	23.47304
369.67	19.56059
369.882	22.35492
370.094	18.31412
370.306	21.98052
370.518	20.1642
370.73	20.42678
370.942	20.18376
371.154	20.77046
371.366	20.66498
371.578	21.60005
371.79	20.85991
372.002	22.0945
372.214	23.48736
372.425	20.88923
372.637	22.92662
372.849	21.58872
373.061	18.88184
373.273	21.47489
373.484	21.66086
373.696	21.74278
373.908	18.27113
374.12	22.05314
374.331	21.56926
374.543	20.05067
374.755	19.88233
374.967	21.08315
375.178	22.53428
375.39	20.42826
375.602	21.19241
375.813	19.33758
376.025	20.5304
376.236	21.44856
376.448	22.17156
376.66	21.42907
376.871	21.53968
377.083	22.44103
377.294	23.79679
377.506	21.08165
377.717	23.24025
377.929	22.11179
378.14	21.1451
378.352	22.16129
378.563	22.37389
378.775	23.33375
378.986	20.81488
379.197	22.07981
379.409	20.99192
379.62	22.06633
379.832	21.76576
380.043	21.66149
380.254	21.98438
380.466	20.3293
380.677	24.68183
380.888	24.09108
381.1	24.78822
381.311	24.92957
381.522	22.06879
381.733	24.81022
381.945	21.58218
382.156	21.517
382.367	21.46406
382.578	24.87357
382.789	25.42674
383.001	21.26228
383.212	24.25119
383.423	23.98434
383.634	23.3893
383.845	23.0916
384.056	22.22671
384.267	22.6013
384.478	22.41387
384.69	21.30168
384.901	23.10347
385.112	22.50679
385.323	24.73623
385.534	23.01994
385.745	22.80234
385.956	22.82954
386.167	21.59389
386.378	23.16915
386.588	21.91225
386.799	21.72564
387.01	21.0346
387.221	23.60396
387.432	22.69692
387.643	24.5059
387.854	22.54275
388.065	22.50166
388.275	22.56404
388.486	21.98394
388.697	23.04875
388.908	22.26829
389.119	23.99831
389.329	24.13163
389.54	22.94508
389.751	22.92087
389.962	23.97455
390.172	22.88265
390.383	22.89769
390.594	22.08761
390.804	22.2858
391.015	22.5739
391.226	23.27675
391.436	23.77241
391.647	23.58722
391.858	23.96131
392.068	21.67211
392.279	22.33258
392.489	23.833
392.7	24.15584
392.91	22.37244
393.121	22.6292
393.331	23.82585
393.542	24.39868
393.752	24.16914
393.963	23.76956
394.173	23.62052
394.384	24.06396
394.594	23.63803
394.804	22.38767
395.015	23.60988
395.225	24.29084
395.436	22.36407
395.646	23.79276
395.856	23.17992
396.067	21.8342
396.277	24.44371
396.487	23.98083
396.697	24.05157
396.908	24.05134
397.118	24.03044
397.328	23.53198
397.538	24.37302
397.749	22.51541
397.959	24.29053
398.169	23.69983
398.379	22.04181
398.589	23.92458
398.8	24.00294
399.01	23.99142
399.22	23.36046
399.43	25.6055
399.64	23.68474
399.85	23.87219
400.06	23.79863
400.27	22.77997
400.48	23.3811
400.69	24.67618
400.9	22.93098
401.11	22.56457
401.32	24.42583
401.53	22.93079
401.74	25.13069
401.95	24.11766
402.16	23.1366
402.37	24.11159
402.58	23.16689
402.79	24.10201
403	24.4809
403.209	22.94497
403.419	24.78422
403.629	23.22054
403.839	24.77539
404.049	24.75058
404.258	23.37851
404.468	23.11962
404.678	24.77843
404.888	25.20371
405.097	23.97016
405.307	23.83503
405.517	24.78605
405.727	24.45324
405.936	23.61457
406.146	24.41245
406.356	25.53202
406.565	23.96795
406.775	23.75438
406.984	23.86264
407.194	25.97612
407.404	24.02001
407.613	24.44104
407.823	24.95608
408.032	25.56899
408.242	25.09572
408.451	23.59399
408.661	23.73882
408.87	25.76262
409.08	23.32399
409.289	24.27914
409.499	24.53536
409.708	24.09629
409.918	22.1119
410.127	24.61404
410.336	25.72426
410.546	25.18619
410.755	23.99361
410.964	23.87642
411.174	23.4291
411.383	24.91018
411.592	24.67318
411.802	23.46105
412.011	24.87982
412.22	24.04826
412.429	25.91475
412.639	25.53121
412.848	25.42938
413.057	26.18808
413.266	25.59137
413.475	24.52606
413.685	25.14438
413.894	25.40801
414.103	25.58415
414.312	25.32247
414.521	24.43154
414.73	24.66608
414.939	26.67539
415.148	25.44418
415.357	24.8679
415.566	24.80693
415.776	24.71703
415.985	24.64678
416.194	25.88078
416.403	26.83076
416.611	24.01472
416.82	24.70807
417.029	25.43156
417.238	24.70631
417.447	24.42763
417.656	25.06425
417.865	24.73285
418.074	25.27927
418.283	25.29085
418.492	26.36745
418.7	26.37637
418.909	27.12793
419.118	25.8664
419.327	25.93158
419.536	25.86458
419.744	25.43565
419.953	26.61087
420.162	26.64202
420.371	26.27323
