Data from WindowProjectSample3_Transmission__25__00025.txt Node

Date: Sun May 04 10:22:37 EDT 2025
User: jessi
Spectrometer: SR400872
Trigger mode: 0
Integration Time (sec): 5.000050E-1
Scans to average: 20
Electric dark correction enabled: true
Nonlinearity correction enabled: true
Boxcar width: 0
XAxis mode: Wavelengths
Number of Pixels in Spectrum: 3648
>>>>>Begin Spectral Data<<<<<
184.909	-1590.75966
185.132	-1250.88807
185.355	-1312.15673
185.578	-1078.13276
185.801	-3477.25079
186.024	-1055.70018
186.247	-1347.1422
186.47	-2741.10388
186.693	-331.40673
186.916	-330.73667
187.139	-1025.81832
187.362	-1717.94573
187.585	-992.6942
187.808	-832.65672
188.031	-253485.5312
188.254	-1236.62213
188.476	-917.88268
188.699	-1058.87764
188.922	531.83292
189.145	-1226.25067
189.368	-1129.89208
189.591	-3577.99875
189.813	-717.75156
190.036	-1243.33844
190.259	-3228.49586
190.482	-1658.37203
190.705	-1694.23877
190.927	-947.74574
191.15	-1656.39796
191.373	-2230.93912
191.595	-2481.48673
191.818	-1253.57023
192.041	-14438.16566
192.263	-1517.39193
192.486	-415.03647
192.709	-1672.57743
192.931	-4256.81956
193.154	-1172.64665
193.377	-1253.44174
193.599	11870.25729
193.822	-793.04244
194.044	-3765.20226
194.267	-4940.77592
194.489	-595.8058
194.712	-1723.06096
194.934	-1624.84779
195.157	-907.88529
195.379	-758.21597
195.602	-791.5378
195.824	-1012.14889
196.047	-913.97115
196.269	-1041.91196
196.492	-1058.37316
196.714	-1082.11697
196.936	-1546.47656
197.159	-900.93926
197.381	-873.85457
197.604	-1127.94825
197.826	-1937.16459
198.048	-1528.73674
198.271	-1231.4501
198.493	-1024.14737
198.715	-841.79564
198.938	-6200.64291
199.16	-1170.47345
199.382	-907.26056
199.604	-9562.09858
199.827	-1624.78078
200.049	-921.94771
200.271	-865.36607
200.493	-2202.38686
200.715	-926.73249
200.938	-745.47709
201.16	-1302.41435
201.382	-2525.75894
201.604	-1281.42077
201.826	-1207.40761
202.048	-549.89744
202.27	-808.63706
202.492	-1980.47878
202.715	-2043.72354
202.937	-2289.49879
203.159	-1145.08012
203.381	-1674.67859
203.603	-1327.23631
203.825	4134.90411
204.047	-1111.30416
204.269	-3030.79497
204.491	-1557.55879
204.713	-764.5387
204.935	-1242.32853
205.156	-1321.88582
205.378	-3872.57229
205.6	-961.04372
205.822	-1090.11945
206.044	2846.06436
206.266	-1315.76256
206.488	-803.33077
206.71	-1838.89027
206.932	-2376.85895
207.153	-1195.14581
207.375	-883.81153
207.597	-1110.82096
207.819	-860.24367
208.041	-1295.84518
208.262	-1170.87823
208.484	-1898.85467
208.706	-833.18126
208.927	-856.05785
209.149	-2280.36534
209.371	-785.20187
209.593	-618.66112
209.814	-608.29545
210.036	-807.41679
210.258	-572.99597
210.479	-1393.90467
210.701	11691.31911
210.922	-804.40274
211.144	-925.44156
211.366	-1999.98086
211.587	10520.33818
211.809	-970.93735
212.03	-3157.25993
212.252	1788.40733
212.473	-1127.18008
212.695	-4619.50499
212.916	-2942.25312
213.138	-5605.60382
213.359	-978.7909
213.581	-1600.93799
213.802	-930.84083
214.024	-1296.51284
214.245	-11473.57086
214.466	-701.77583
214.688	-1289.15706
214.909	-1509.51507
215.131	-1978.94668
215.352	-975.53958
215.573	-1238.44696
215.795	-3195.24331
216.016	-1127.81685
216.237	-4342.59534
216.459	-13111.18568
216.68	-1584.72787
216.901	-1431.0208
217.122	-3301.49743
217.344	-1222.41351
217.565	-1539.32672
217.786	-1473.03105
218.007	-1146.87411
218.228	-5313.85037
218.45	-1135.63353
218.671	-1476.72302
218.892	-1688.96513
219.113	-2294.94279
219.334	-56.6194
219.555	-1370.4981
219.776	-826.84182
219.997	-1372.72848
220.219	-2754.29746
220.44	-1009.08601
220.661	-807.00141
220.882	-986.9808
221.103	-2981.17337
221.324	5782.16134
221.545	-1929.43925
221.766	-1325.15411
221.987	-2307.04133
222.208	-2706.44017
222.429	-934.13608
222.65	-1610.67608
222.87	5529.60273
223.091	-8124.73287
223.312	4112.03669
223.533	-1679.74095
223.754	-1663.67293
223.975	-2465.33207
224.196	144973.39434
224.417	-10127.61055
224.637	1951.50274
224.858	236.19551
225.079	-6982.99431
225.3	2377.12771
225.521	-870.1394
225.741	8171.42497
225.962	6726.88413
226.183	300.62655
226.404	8780.67744
226.624	1710.58562
226.845	7757.58829
227.066	1761.15758
227.286	727.45277
227.507	236.34555
227.728	278.69284
227.948	497.60529
228.169	146.43986
228.389	153.87652
228.61	80.84065
228.831	116.2962
229.051	9.06351
229.272	70.15231
229.492	103.04443
229.713	31.40907
229.933	70.80378
230.154	62.28601
230.374	108.67101
230.595	75.62708
230.815	43.80014
231.036	78.83461
231.256	-8.73719
231.477	140.05814
231.697	80.02871
231.917	81.70705
232.138	120.08197
232.358	235.65195
232.579	205.29266
232.799	31.45488
233.019	198.90979
233.24	231.42291
233.46	78.63325
233.68	128.05274
233.901	80.61855
234.121	55.03159
234.341	16.50083
234.561	-5.99476
234.782	70.70394
235.002	135.35051
235.222	-0.41436
235.442	124.9418
235.662	61.60504
235.883	118.10334
236.103	92.52762
236.323	71.54758
236.543	52.44106
236.763	76.86094
236.983	80.44643
237.203	77.40302
237.423	121.44934
237.643	183.29738
237.864	145.04679
238.084	37.82508
238.304	48.27255
238.524	86.31132
238.744	77.97784
238.964	134.69809
239.184	118.6548
239.404	121.59093
239.624	62.63006
239.843	111.04408
240.063	59.12869
240.283	39.32449
240.503	44.64776
240.723	42.38248
240.943	27.38874
241.163	33.69729
241.383	23.20177
241.603	12.79877
241.822	14.54941
242.042	10.61475
242.262	13.8103
242.482	15.31166
242.702	16.95184
242.921	5.50676
243.141	11.14632
243.361	10.96975
243.581	16.09671
243.8	13.75004
244.02	9.1024
244.24	17.18731
244.459	15.12311
244.679	31.85475
244.899	20.64048
245.118	23.05583
245.338	21.68203
245.558	23.65035
245.777	13.47967
245.997	16.26832
246.216	15.8084
246.436	9.48265
246.655	6.6534
246.875	5.46682
247.094	9.86584
247.314	3.65445
247.533	6.25271
247.753	6.94058
247.972	5.6821
248.192	2.03067
248.411	3.51871
248.631	5.96992
248.85	7.4261
249.07	7.30231
249.289	10.47963
249.508	7.6729
249.728	12.92574
249.947	12.50802
250.166	15.58898
250.386	8.55022
250.605	11.72953
250.824	19.67244
251.044	12.66276
251.263	39.15516
251.482	21.47718
251.701	18.74326
251.921	0.35726
252.14	6.39955
252.359	7.09641
252.578	16.63564
252.798	6.57748
253.017	14.27211
253.236	7.42167
253.455	9.65652
253.674	19.3398
253.893	9.1109
254.112	14.66167
254.331	20.04047
254.551	16.78455
254.77	7.23501
254.989	23.49059
255.208	17.57138
255.427	25.26326
255.646	22.47696
255.865	33.63954
256.084	15.24854
256.303	18.80663
256.522	22.00916
256.741	5.56467
256.96	5.23253
257.179	13.36185
257.397	17.66385
257.616	9.59512
257.835	10.40217
258.054	24.29025
258.273	16.55102
258.492	16.7001
258.711	10.19902
258.93	4.92704
259.148	7.15671
259.367	6.74927
259.586	8.43807
259.805	3.83887
260.023	7.49641
260.242	5.62582
260.461	4.38158
260.68	2.22619
260.898	6.61704
261.117	2.43439
261.336	1.78508
261.554	5.7347
261.773	5.98664
261.992	1.60324
262.21	5.69903
262.429	6.58915
262.648	11.0568
262.866	12.69856
263.085	9.54629
263.303	7.95588
263.522	14.02043
263.74	13.59464
263.959	23.53982
264.178	12.66363
264.396	10.78012
264.615	7.63421
264.833	17.44323
265.051	15.23955
265.27	17.09988
265.488	16.99201
265.707	10.1354
265.925	16.3685
266.144	8.11936
266.362	8.66124
266.58	8.90752
266.799	7.68959
267.017	9.22154
267.235	8.39887
267.454	5.62546
267.672	2.93496
267.89	6.92371
268.109	7.28394
268.327	7.29425
268.545	1.42355
268.763	6.53733
268.982	2.89654
269.2	7.63267
269.418	5.17264
269.636	3.87613
269.854	7.26893
270.073	5.28472
270.291	2.85775
270.509	3.01447
270.727	7.05451
270.945	11.25705
271.163	10.91086
271.381	2.95868
271.599	4.73728
271.817	7.70805
272.036	2.9651
272.254	5.42598
272.472	3.59159
272.69	3.91329
272.908	3.93568
273.126	6.28646
273.344	8.12394
273.562	2.88859
273.779	4.18246
273.997	6.66612
274.215	6.42012
274.433	4.84264
274.651	6.94265
274.869	7.10133
275.087	4.05897
275.305	6.50814
275.523	4.08495
275.74	4.76078
275.958	8.55514
276.176	12.24065
276.394	3.83842
276.612	5.01272
276.829	4.99766
277.047	4.71665
277.265	4.69381
277.483	5.53263
277.7	6.25186
277.918	5.26649
278.136	9.46883
278.353	4.76606
278.571	2.80302
278.789	7.45068
279.006	1.51675
279.224	4.50193
279.442	7.67717
279.659	5.43893
279.877	3.5824
280.094	8.21782
280.312	1.75577
280.529	5.36965
280.747	1.94184
280.964	4.41854
281.182	8.70664
281.399	4.58803
281.617	5.32378
281.834	3.81228
282.052	3.03653
282.269	5.08965
282.487	4.03828
282.704	3.58689
282.921	3.32038
283.139	5.24353
283.356	6.43588
283.574	5.95845
283.791	2.8751
284.008	7.98403
284.226	4.76766
284.443	5.16824
284.66	6.1405
284.877	5.41664
285.095	3.31744
285.312	2.5463
285.529	1.3984
285.746	1.34929
285.964	3.26944
286.181	2.11322
286.398	2.98475
286.615	4.21448
286.832	4.09521
287.05	1.08593
287.267	2.87143
287.484	4.10639
287.701	4.27724
287.918	3.98321
288.135	4.08161
288.352	1.8127
288.569	2.30976
288.786	3.90474
289.003	2.95331
289.22	4.69485
289.437	2.66436
289.654	4.27212
289.871	4.27837
290.088	4.32481
290.305	3.39225
290.522	2.94214
290.739	3.05847
290.956	4.69788
291.173	5.50837
291.39	5.17178
291.607	3.5491
291.824	3.04168
292.04	2.17096
292.257	4.43831
292.474	5.01047
292.691	3.28294
292.908	1.43217
293.125	2.7131
293.341	1.70039
293.558	7.47771
293.775	3.24788
293.992	3.23398
294.208	1.2939
294.425	2.17456
294.642	2.79506
294.858	4.01856
295.075	1.15966
295.292	3.18555
295.508	3.58288
295.725	5.25004
295.942	2.62168
296.158	1.77691
296.375	3.07625
296.591	2.40143
296.808	2.40523
297.024	2.96746
297.241	3.20279
297.458	3.37423
297.674	0.37263
297.891	2.70752
298.107	2.12173
298.323	1.69972
298.54	4.04979
298.756	2.02085
298.973	0.94176
299.189	4.30523
299.406	2.06523
299.622	4.2852
299.838	4.20051
300.055	3.9346
300.271	0.92958
300.487	1.53989
300.704	1.7596
300.92	1.03053
301.136	5.55455
301.353	4.26656
301.569	2.98512
301.785	3.1642
302.001	3.87812
302.218	3.48143
302.434	3.55102
302.65	1.3077
302.866	2.19194
303.083	5.85559
303.299	5.52257
303.515	2.93042
303.731	3.16845
303.947	1.0619
304.163	2.01436
304.379	3.2216
304.595	3.55048
304.812	2.12737
305.028	1.68463
305.244	2.52082
305.46	3.89595
305.676	3.81479
305.892	4.8038
306.108	3.48849
306.324	2.45121
306.54	5.3672
306.756	3.70162
306.972	3.49683
307.187	2.52307
307.403	4.97299
307.619	2.13181
307.835	4.44874
308.051	4.5543
308.267	1.53604
308.483	4.25267
308.699	3.49934
308.914	2.79518
309.13	2.90078
309.346	0.75525
309.562	1.43462
309.778	0.77996
309.993	3.56809
310.209	2.74144
310.425	1.24555
310.641	2.32888
310.856	1.41559
311.072	1.46113
311.288	2.58562
311.503	2.78704
311.719	0.58362
311.935	0.40821
312.15	3.05732
312.366	2.74329
312.581	3.40265
312.797	2.69076
313.013	3.63951
313.228	1.98876
313.444	2.79687
313.659	1.69713
313.875	3.224
314.09	2.68486
314.306	4.52289
314.521	3.80373
314.737	3.69978
314.952	3.07933
315.168	2.82102
315.383	3.37806
315.599	2.57552
315.814	2.339
316.029	4.01518
316.245	1.15731
316.46	0.8523
316.675	4.61772
316.891	5.30798
317.106	6.75667
317.321	3.7009
317.537	3.41004
317.752	3.75589
317.967	3.9113
318.183	1.93717
318.398	2.54828
318.613	3.91375
318.828	4.66031
319.043	4.08553
319.259	2.66694
319.474	3.0938
319.689	4.3687
319.904	0.72166
320.119	3.81874
320.334	3.21887
320.549	2.59663
320.765	4.63979
320.98	3.34036
321.195	4.09527
321.41	2.75872
321.625	3.97077
321.84	5.26849
322.055	5.30534
322.27	1.96162
322.485	1.45247
322.7	3.24483
322.915	4.24138
323.13	1.86261
323.345	4.92874
323.56	3.86643
323.775	3.76053
323.989	3.65683
324.204	3.19875
324.419	3.90717
324.634	1.08
324.849	2.73409
325.064	5.37321
325.279	4.02254
325.493	3.55472
325.708	4.26415
325.923	1.93645
326.138	2.01223
326.352	5.04243
326.567	3.98927
326.782	2.51299
326.997	1.91832
327.211	3.61094
327.426	3.46935
327.641	2.51621
327.855	0.93489
328.07	3.62447
328.285	4.98756
328.499	2.62493
328.714	3.32721
328.928	4.00829
329.143	2.8718
329.358	4.4445
329.572	4.43605
329.787	4.49522
330.001	6.18761
330.216	1.31533
330.43	5.08355
330.645	5.26149
330.859	4.07552
331.074	2.04857
331.288	3.22173
331.503	4.78407
331.717	1.64686
331.931	2.91523
332.146	3.19199
332.36	5.46693
332.575	3.63177
332.789	3.28919
333.003	2.79366
333.218	3.67589
333.432	2.03523
333.646	3.72079
333.86	4.89759
334.075	5.06417
334.289	2.43604
334.503	1.72023
334.717	3.5733
334.932	3.60685
335.146	4.18133
335.36	2.41018
335.574	3.97645
335.788	3.78133
336.003	4.53296
336.217	4.05479
336.431	3.7186
336.645	2.42008
336.859	1.59503
337.073	2.91423
337.287	3.12506
337.501	1.66628
337.715	3.06707
337.929	3.5802
338.143	1.5389
338.357	2.80722
338.571	1.78371
338.785	3.54282
338.999	2.32773
339.213	2.23791
339.427	1.31108
339.641	4.39032
339.855	2.65152
340.069	2.21271
340.283	4.2729
340.497	4.85986
340.711	3.43254
340.924	2.57827
341.138	1.62533
341.352	1.36587
341.566	2.98436
341.78	0.59616
341.993	2.13456
342.207	1.66927
342.421	3.11453
342.635	2.79637
342.848	2.07914
343.062	0.30053
343.276	1.97517
343.49	5.41171
343.703	1.9885
343.917	3.79626
344.131	3.86451
344.344	1.86429
344.558	2.06254
344.771	1.7004
344.985	4.06263
345.199	4.66595
345.412	3.0519
345.626	2.97414
345.839	0.88985
346.053	1.50406
346.266	1.44437
346.48	3.43813
346.693	3.04735
346.907	3.29037
347.12	1.59955
347.334	3.0047
347.547	3.08341
347.76	2.37467
347.974	4.03411
348.187	3.09087
348.401	2.25553
348.614	1.87795
348.827	2.36052
349.041	3.29614
349.254	0.68435
349.467	2.37733
349.681	1.22225
349.894	2.08445
350.107	3.83725
350.32	4.66885
350.534	0.92292
350.747	2.22156
350.96	1.62555
351.173	1.72934
351.386	2.0633
351.6	2.10711
351.813	1.76072
352.026	2.72825
352.239	1.19815
352.452	2.34324
352.665	3.5737
352.878	2.22359
353.092	4.98533
353.305	3.28363
353.518	2.70103
353.731	1.6749
353.944	3.6429
354.157	1.77676
354.37	1.60349
354.583	1.38287
354.796	0.73158
355.009	3.87613
355.222	2.59767
355.435	2.5492
355.647	3.67684
355.86	1.27719
356.073	2.34147
356.286	1.90024
356.499	3.24589
356.712	2.82631
356.925	2.81116
357.138	3.4489
357.35	1.24984
357.563	1.95375
357.776	2.32172
357.989	1.99635
358.201	2.93983
358.414	2.46727
358.627	3.47316
358.84	2.09016
359.052	1.26662
359.265	1.10007
359.478	3.32576
359.69	-0.40914
359.903	3.04145
360.116	2.99769
360.328	0.66519
360.541	3.04145
360.753	1.18923
360.966	1.54477
361.179	1.68453
361.391	1.59227
361.604	1.13322
361.816	1.63577
362.029	1.36261
362.241	1.18601
362.454	1.48766
362.666	1.25391
362.879	2.05195
363.091	1.73672
363.304	1.30744
363.516	2.0087
363.728	0.86979
363.941	2.73728
364.153	1.455
364.366	-0.10442
364.578	1.0595
364.79	2.54308
365.003	1.96315
365.215	1.57601
365.427	2.49916
365.639	3.28576
365.852	2.22334
366.064	3.883
366.276	1.52561
366.488	2.58337
366.701	1.604
366.913	1.88212
367.125	1.92812
367.337	1.42378
367.549	1.49288
367.762	2.16546
367.974	2.08302
368.186	1.38881
368.398	3.00034
368.61	2.76914
368.822	2.76673
369.034	2.08
369.246	2.64399
369.458	4.4159
369.67	1.03305
369.882	3.84867
370.094	0.09472
370.306	3.58066
370.518	1.68596
370.73	1.39746
370.942	1.24526
371.154	1.80637
371.366	1.35904
371.578	2.28608
371.79	1.20404
372.002	3.1127
372.214	3.7029
372.425	2.24828
372.637	3.31447
372.849	2.30605
373.061	-0.0182
373.273	2.5715
373.484	2.51369
373.696	2.76665
373.908	-0.09692
374.12	3.13035
374.331	2.40503
374.543	1.33251
374.755	1.05923
374.967	2.15076
375.178	2.76547
375.39	1.74503
375.602	1.9893
375.813	0.8108
376.025	0.78728
376.236	1.81708
376.448	2.12601
376.66	1.54168
376.871	1.40723
377.083	2.67617
377.294	2.84506
377.506	1.476
377.717	3.25427
377.929	2.08083
378.14	1.08693
378.352	2.49259
378.563	2.31974
378.775	3.1303
378.986	1.34452
379.197	2.17704
379.409	1.43359
379.62	2.79569
379.832	2.12923
380.043	1.59734
380.254	2.18146
380.466	0.77437
380.677	4.48107
380.888	4.13675
381.1	4.47316
381.311	4.16107
381.522	1.87831
381.733	4.88034
381.945	1.5884
382.156	2.10117
382.367	1.42493
382.578	4.46188
382.789	4.50735
383.001	1.55646
383.212	3.15113
383.423	3.31481
383.634	3.13624
383.845	2.29062
384.056	1.51835
384.267	1.8711
384.478	1.79751
384.69	0.86858
384.901	2.4631
385.112	2.31824
385.323	3.47078
385.534	2.38426
385.745	2.19903
385.956	2.42758
386.167	1.01236
386.378	2.45017
386.588	0.86373
386.799	1.28529
387.01	0.4642
387.221	2.75396
387.432	1.91788
387.643	3.75061
387.854	1.81298
388.065	1.5931
388.275	1.76092
388.486	1.60619
388.697	1.78329
388.908	1.66898
389.119	2.96358
389.329	3.63154
389.54	2.06846
389.751	2.28615
389.962	3.1555
390.172	2.2197
390.383	1.50314
390.594	1.41585
390.804	1.36005
391.015	1.31701
391.226	2.00628
391.436	2.5013
391.647	2.26147
391.858	2.55113
392.068	0.53538
392.279	0.87915
392.489	1.96884
392.7	2.90439
392.91	0.93797
393.121	1.26962
393.331	2.37531
393.542	3.00388
393.752	2.54718
393.963	2.02653
394.173	1.96522
394.384	2.6328
394.594	1.94622
394.804	1.00106
395.015	2.08919
395.225	2.6318
395.436	1.02572
395.646	2.57243
395.856	1.30745
396.067	0.99022
396.277	3.00416
396.487	2.45314
396.697	2.14656
396.908	2.86968
397.118	2.81945
397.328	2.44856
397.538	3.11021
397.749	1.53045
397.959	3.01598
398.169	2.84216
398.379	0.99018
398.589	2.88674
398.8	2.2643
399.01	2.22714
399.22	1.92391
399.43	4.23746
399.64	1.82178
399.85	2.88606
400.06	2.17507
400.27	1.78276
400.48	2.27832
400.69	3.57704
400.9	1.76978
401.11	1.70072
401.32	3.1448
401.53	1.88046
401.74	3.8814
401.95	3.00277
402.16	1.53058
402.37	2.79114
402.58	1.8564
402.79	2.9475
403	3.24899
403.209	1.92653
403.419	3.07918
403.629	2.05762
403.839	3.10291
404.049	3.13777
404.258	1.72259
404.468	1.60882
404.678	2.94909
404.888	3.00651
405.097	1.73974
405.307	2.4353
405.517	2.91217
405.727	2.63522
405.936	2.25605
406.146	2.71777
406.356	3.70586
406.565	2.61797
406.775	2.1779
406.984	2.30866
407.194	4.07798
407.404	2.73512
407.613	2.93519
407.823	3.4395
408.032	3.8462
408.242	3.55613
408.451	2.31307
408.661	2.59908
408.87	4.37655
409.08	2.30945
409.289	3.16929
409.499	3.03737
409.708	3.00506
409.918	1.20004
410.127	2.81743
410.336	4.21787
410.546	3.41804
410.755	2.54109
410.964	2.47638
411.174	2.35421
411.383	3.45804
411.592	3.44589
411.802	2.14098
412.011	3.91998
412.22	3.07902
412.429	4.45224
412.639	4.2265
412.848	4.27454
413.057	4.49375
413.266	4.13114
413.475	3.15285
413.685	3.96918
413.894	3.96346
414.103	4.27727
414.312	3.74899
414.521	3.1776
414.73	3.2709
414.939	4.8491
415.148	3.69323
415.357	3.51825
415.566	2.99624
415.776	3.02878
415.985	2.89131
416.194	4.00504
416.403	4.6519
416.611	2.29899
416.82	2.81582
417.029	3.29193
417.238	2.72129
417.447	2.53934
417.656	2.85754
417.865	2.70897
418.074	2.85046
418.283	3.15806
418.492	3.79481
418.7	3.68289
418.909	4.35313
419.118	3.30977
419.327	3.5436
419.536	3.34963
419.744	2.83341
419.953	3.9405
420.162	3.9465
420.371	2.96639
420.579	2.97422
420.788	4.04292
420.997	3.98192
421.205	4.12696
421.414	3.72644
421.623	3.80169
421.831	3.35368
422.04	4.20584
422.249	3.21031
422.457	3.86375
422.666	3.19241
422.874	4.19782
423.083	4.22055
423.291	4.1697
423.5	3.86175
423.708	4.08541
423.917	4.51152
424.125	4.03935
424.334	3.68548
424.542	5.53532
424.751	4.77675
424.959	4.51012
425.167	4.84209
425.376	4.72881
425.584	3.83657
425.793	4.16501
