Data from WindowProjectSample_Transmission__8__00008.txt Node

Date: Sat May 03 14:59:52 EDT 2025
User: jessi
Spectrometer: SR400872
Trigger mode: 0
Integration Time (sec): 5.000010E-1
Scans to average: 6
Electric dark correction enabled: true
Nonlinearity correction enabled: true
Boxcar width: 0
XAxis mode: Wavelengths
Number of Pixels in Spectrum: 3648
>>>>>Begin Spectral Data<<<<<
184.909	18191.8958
185.132	2718.2418
185.355	23442.60841
185.578	-7752.42147
185.801	370.11234
186.024	-1488.43948
186.247	914.0277
186.47	1744.95693
186.693	-285.52314
186.916	-1158.80541
187.139	-2535.23523
187.362	1793.42152
187.585	2737.66971
187.808	-3709.77864
188.031	-1675.40403
188.254	-1274.02088
188.476	-842.47209
188.699	2586.17007
188.922	-1106.04095
189.145	-9988.55959
189.368	-407.90592
189.591	-1286.59653
189.813	-1718.08821
190.036	1241.62437
190.259	1595.17791
190.482	560.33611
190.705	10422.84147
190.927	-1040.19927
191.15	3432.12937
191.373	2261.74776
191.595	-2470.66948
191.818	2354.75654
192.041	-270.85174
192.263	2597.90559
192.486	2096.87614
192.709	-5318.247
192.931	2929.33892
193.154	-6201.4381
193.377	182925.45997
193.599	1476.36867
193.822	1710.2986
194.044	-2241.521
194.267	436.81643
194.489	-302.09876
194.712	1420.05972
194.934	3350.00268
195.157	-13666.19507
195.379	787.8155
195.602	2180.55833
195.824	2044.02291
196.047	2650.29948
196.269	2909.22136
196.492	3243.71439
196.714	2797.21829
196.936	1241.09697
197.159	1357.23418
197.381	-1963.34422
197.604	-698.73372
197.826	5883.04015
198.048	2951.85767
198.271	3773.18678
198.493	2043.79201
198.715	-5744.2556
198.938	-519.01908
199.16	1811.05886
199.382	1443.66544
199.604	-697.39694
199.827	8628.87984
200.049	1000.60755
200.271	-2965.97156
200.493	-51220.89689
200.715	2291.03467
200.938	6508.22791
201.16	-7284.66786
201.382	-2999.35878
201.604	-1888.11055
201.826	6211.61518
202.048	965.43452
202.27	-15498.8353
202.492	4578.30458
202.715	-1052.8306
202.937	4812.05479
203.159	-2152.45423
203.381	919.35954
203.603	-3595.50692
203.825	-2572.09386
204.047	3094.29457
204.269	-1890.19783
204.491	2124.34522
204.713	1900.61854
204.935	15796.48229
205.156	1433.5564
205.378	-9034.90945
205.6	-3927.0246
205.822	9117.53512
206.044	-597.98513
206.266	4173.48992
206.488	967.62499
206.71	29777.71784
206.932	2218.13062
207.153	-4793.19836
207.375	-1886.05365
207.597	8314.16273
207.819	4215.58999
208.041	2346.08886
208.262	-2441.54609
208.484	-1202.17724
208.706	-2911.22832
208.927	25344.24437
209.149	845.3066
209.371	-6065.88233
209.593	1309.29693
209.814	4578.67358
210.036	-2761.24957
210.258	-4723.28604
210.479	-1420.11873
210.701	981.07166
210.922	6569.03535
211.144	-1357.14892
211.366	-5940.15262
211.587	-500.54686
211.809	10005.31459
212.03	-1371.67518
212.252	-1886.81629
212.473	773.24139
212.695	-2485.69537
212.916	3072.26297
213.138	3362.10438
213.359	-1908.53359
213.581	6410.17382
213.802	-1552.20234
214.024	16137.39658
214.245	-2939.432
214.466	-356.08136
214.688	1593.06394
214.909	939.47006
215.131	-103396.06696
215.352	1683.80436
215.573	2468.82075
215.795	2977.70462
216.016	3887.59724
216.237	-577.08174
216.459	6715.74807
216.68	105276.27579
216.901	-81792.0885
217.122	2231.91162
217.344	6277.02517
217.565	-58649.6506
217.786	1490.83285
218.007	1765.65627
218.228	-1247.58695
218.45	-1254.34799
218.671	-1049.312
218.892	1132.70903
219.113	-17324.13311
219.334	-378.42864
219.555	-5385.32604
219.776	1622.2612
219.997	3418.37762
220.219	1056.0798
220.44	2398.13756
220.661	-3270.57658
220.882	3458.11947
221.103	-1232.40114
221.324	905.28815
221.545	2160.78296
221.766	-5760.38547
221.987	3894.23405
222.208	-1768.34331
222.429	3500.33914
222.65	-92.6232
222.87	-466.30637
223.091	8889.50068
223.312	2665.53465
223.533	6458.77898
223.754	1789.20133
223.975	1475.47947
224.196	-11736.51021
224.417	1031.14705
224.637	831.75403
224.858	-891.23904
225.079	7182.26614
225.3	644.40713
225.521	2056.85261
225.741	1455.86005
225.962	713.55794
226.183	321.21114
226.404	647.79855
226.624	590.70852
226.845	367.25846
227.066	417.98082
227.286	183.98076
227.507	91.08089
227.728	73.61775
227.948	121.87147
228.169	38.28183
228.389	45.31913
228.61	22.25433
228.831	35.23544
229.051	2.80696
229.272	22.13575
229.492	29.97683
229.713	7.56214
229.933	23.32927
230.154	20.05455
230.374	31.18547
230.595	24.46643
230.815	16.14181
231.036	23.27832
231.256	-7.33258
231.477	44.34063
231.697	22.88614
231.917	24.46828
232.138	34.85813
232.358	75.4957
232.579	66.62307
232.799	11.74095
233.019	66.00797
233.24	79.16491
233.46	24.03241
233.68	37.51218
233.901	31.8786
234.121	19.07426
234.341	10.46011
234.561	-3.36863
234.782	15.53477
235.002	47.37939
235.222	0.39909
235.442	40.24519
235.662	20.3876
235.883	44.98911
236.103	37.9015
236.323	26.73601
236.543	16.06202
236.763	30.38422
236.983	27.3675
237.203	30.07922
237.423	42.86275
237.643	62.34103
237.864	51.70454
238.084	11.98206
238.304	21.553
238.524	31.8395
238.744	28.5978
238.964	46.50424
239.184	44.40781
239.404	42.62455
239.624	23.07875
239.843	40.3712
240.063	22.37794
240.283	17.40003
240.503	16.96985
240.723	17.1096
240.943	8.67162
241.163	13.71616
241.383	9.53973
241.603	4.99743
241.822	5.94501
242.042	4.6129
242.262	5.80695
242.482	6.89193
242.702	7.91266
242.921	2.57028
243.141	5.50585
243.361	5.27652
243.581	7.46753
243.8	6.32164
244.02	3.54549
244.24	7.74229
244.459	6.9949
244.679	14.41726
244.899	9.61108
245.118	10.41165
245.338	9.41252
245.558	9.98945
245.777	6.18547
245.997	7.26986
246.216	7.33858
246.436	4.34972
246.655	3.1485
246.875	2.44002
247.094	4.71698
247.314	1.60517
247.533	2.66092
247.753	3.56322
247.972	2.58859
248.192	0.96955
248.411	1.70961
248.631	3.073
248.85	3.91976
249.07	2.97265
249.289	5.39653
249.508	3.96252
249.728	6.3203
249.947	6.56354
250.166	6.75254
250.386	3.78932
250.605	5.81894
250.824	7.87471
251.044	5.8769
251.263	20.33546
251.482	10.43568
251.701	9.80179
251.921	-0.14615
252.14	3.06067
252.359	3.58129
252.578	8.45408
252.798	2.5714
253.017	7.13031
253.236	3.60294
253.455	4.92736
253.674	9.32128
253.893	4.72254
254.112	6.4725
254.331	9.70075
254.551	7.63945
254.77	4.27322
254.989	11.42348
255.208	10.01277
255.427	12.83704
255.646	10.58883
255.865	17.75023
256.084	7.76257
256.303	8.08008
256.522	11.03911
256.741	2.15018
256.96	3.09871
257.179	6.81769
257.397	8.53033
257.616	4.72244
257.835	4.61881
258.054	12.50909
258.273	7.36518
258.492	8.4448
258.711	4.59337
258.93	2.17739
259.148	3.27376
259.367	3.49143
259.586	4.45166
259.805	2.16932
260.023	4.35684
260.242	3.2813
260.461	2.32037
260.68	1.38299
260.898	3.67992
261.117	1.14174
261.336	0.86711
261.554	3.18993
261.773	3.07771
261.992	0.74568
262.21	2.87034
262.429	3.6702
262.648	6.30465
262.866	7.12105
263.085	4.4325
263.303	4.17757
263.522	7.4286
263.74	7.66483
263.959	12.87766
264.178	6.6723
264.396	5.99731
264.615	4.62529
264.833	9.81677
265.051	8.72765
265.27	8.20799
265.488	9.50445
265.707	6.19891
265.925	9.21814
266.144	4.01979
266.362	5.38947
266.58	5.18423
266.799	4.04311
267.017	5.20183
267.235	4.53971
267.454	2.76458
267.672	1.75783
267.89	3.68298
268.109	4.01933
268.327	3.70622
268.545	0.98834
268.763	3.5988
268.982	1.81406
269.2	4.95105
269.418	2.69265
269.636	2.00965
269.854	3.32208
270.073	2.90378
270.291	1.57926
270.509	1.88745
270.727	3.8264
270.945	6.08356
271.163	5.95665
271.381	1.68845
271.599	2.74631
271.817	4.35329
272.036	1.55529
272.254	2.55616
272.472	2.04059
272.69	2.22095
272.908	2.1818
273.126	3.73021
273.344	4.61684
273.562	1.7949
273.779	2.21772
273.997	3.38211
274.215	3.74818
274.433	2.54486
274.651	3.9293
274.869	3.94794
275.087	2.37412
275.305	3.83135
275.523	2.02261
275.74	2.95166
275.958	4.93255
276.176	7.02106
276.394	2.38067
276.612	2.87806
276.829	2.86559
277.047	2.37181
277.265	2.64724
277.483	3.0484
277.7	3.90001
277.918	3.23075
278.136	5.64736
278.353	2.82134
278.571	1.5109
278.789	4.47908
279.006	0.71169
279.224	2.66028
279.442	4.26356
279.659	3.12592
279.877	1.92118
280.094	4.73947
280.312	0.92966
280.529	2.90012
280.747	0.80657
280.964	2.26073
281.182	5.43716
281.399	2.2199
281.617	3.23335
281.834	2.50822
282.052	1.92306
282.269	2.6344
282.487	2.21211
282.704	1.5906
282.921	2.02162
283.139	2.94858
283.356	3.70878
283.574	3.32023
283.791	1.68737
284.008	4.61923
284.226	2.51881
284.443	2.85207
284.66	3.51126
284.877	2.95624
285.095	2.07057
285.312	1.42476
285.529	1.03046
285.746	0.62654
285.964	1.88805
286.181	1.00541
286.398	1.69263
286.615	2.41757
286.832	2.33736
287.05	0.59292
287.267	1.48602
287.484	1.82422
287.701	2.38743
287.918	2.3558
288.135	2.45718
288.352	1.28009
288.569	1.34886
288.786	2.17023
289.003	1.74997
289.22	2.42066
289.437	1.63659
289.654	2.66074
289.871	2.72384
290.088	2.61562
290.305	2.09734
290.522	1.56159
290.739	2.04383
290.956	2.88166
291.173	3.35355
291.39	3.10556
291.607	2.16833
291.824	1.582
292.04	1.05549
292.257	2.48902
292.474	2.91856
292.691	1.75129
292.908	1.03777
293.125	1.84549
293.341	0.92059
293.558	4.62024
293.775	1.98667
293.992	1.96442
294.208	0.72077
294.425	1.06733
294.642	1.65629
294.858	2.62381
295.075	0.62263
295.292	1.81758
295.508	2.13569
295.725	3.35158
295.942	1.67255
296.158	1.24275
296.375	1.87313
296.591	1.43752
296.808	1.56658
297.024	1.68237
297.241	1.94098
297.458	2.18877
297.674	0.26671
297.891	1.62422
298.107	1.31082
298.323	0.9977
298.54	2.58972
298.756	1.1527
298.973	0.52582
299.189	2.66646
299.406	1.04429
299.622	2.65804
299.838	2.54702
300.055	2.51023
300.271	0.65254
300.487	0.86013
300.704	1.103
300.92	0.81842
301.136	3.60087
301.353	2.50002
301.569	1.83946
301.785	2.09903
302.001	2.63628
302.218	2.21214
302.434	1.96622
302.65	0.8152
302.866	1.43043
303.083	3.39177
303.299	3.359
303.515	1.82372
303.731	1.89753
303.947	0.70939
304.163	1.14378
304.379	2.10327
304.595	2.32538
304.812	1.2959
305.028	1.05422
305.244	1.43071
305.46	2.49016
305.676	2.543
305.892	3.13403
306.108	1.91899
306.324	1.51667
306.54	3.4526
306.756	2.32242
306.972	2.40138
307.187	1.78535
307.403	3.2332
307.619	1.33227
307.835	2.80561
308.051	3.09287
308.267	0.67246
308.483	2.53867
308.699	2.22074
308.914	1.92307
309.13	1.78623
309.346	0.4183
309.562	1.06758
309.778	0.70268
309.993	2.22925
310.209	1.70846
310.425	0.77723
310.641	1.58541
310.856	0.91637
311.072	0.78429
311.288	1.66598
311.503	1.90032
311.719	0.33801
311.935	0.20945
312.15	1.96153
312.366	1.7769
312.581	2.16147
312.797	1.70267
313.013	2.4085
313.228	1.24325
313.444	1.76924
313.659	1.27405
313.875	1.97629
314.09	1.67796
314.306	2.95662
314.521	2.4628
314.737	2.54057
314.952	2.06689
315.168	1.68725
315.383	2.40261
315.599	1.43157
315.814	1.49791
316.029	2.3437
316.245	0.78101
316.46	0.72139
316.675	2.9725
316.891	3.80295
317.106	4.14837
317.321	2.39667
317.537	2.26689
317.752	2.47347
317.967	2.40304
318.183	1.24382
318.398	1.5846
318.613	2.70564
318.828	3.047
319.043	2.54426
319.259	1.51538
319.474	2.31052
319.689	2.99988
319.904	0.37208
320.119	2.34744
320.334	2.18286
320.549	1.64672
320.765	2.85574
320.98	2.29225
321.195	2.8206
321.41	1.90894
321.625	2.44861
321.84	3.54919
322.055	3.61197
322.27	1.42689
322.485	0.79355
322.7	1.98374
322.915	2.9125
323.13	1.22145
323.345	3.0956
323.56	2.64925
323.775	2.45792
323.989	2.51032
324.204	1.85257
324.419	2.60186
324.634	0.82478
324.849	1.75608
325.064	4.0702
325.279	2.89445
325.493	2.52653
325.708	2.83711
325.923	1.24466
326.138	1.11232
326.352	3.25902
326.567	2.67469
326.782	1.6989
326.997	1.24309
327.211	2.35733
327.426	2.33409
327.641	1.50785
327.855	0.71758
328.07	2.46396
328.285	3.29355
328.499	1.60403
328.714	2.44459
328.928	2.48635
329.143	2.11594
329.358	2.77907
329.572	2.90554
329.787	3.06696
330.001	3.95176
330.216	0.85217
330.43	3.57897
330.645	3.39627
330.859	2.71913
331.074	1.38931
331.288	2.22071
331.503	2.96458
331.717	1.07398
331.931	1.92175
332.146	1.97121
332.36	3.5137
332.575	2.40259
332.789	2.07618
333.003	1.92765
333.218	2.381
333.432	1.67667
333.646	2.40801
333.86	3.24705
334.075	3.34509
334.289	1.70747
334.503	1.18047
334.717	2.45733
334.932	2.52713
335.146	3.10626
335.36	1.87177
335.574	2.44947
335.788	2.5543
336.003	3.12524
336.217	2.6391
336.431	2.48453
336.645	1.40618
336.859	0.97439
337.073	1.69161
337.287	2.28882
337.501	1.18232
337.715	1.98218
337.929	2.61071
338.143	1.16497
338.357	1.89447
338.571	1.16584
338.785	2.39155
338.999	1.64405
339.213	1.60733
339.427	0.83247
339.641	2.91155
339.855	1.87393
340.069	1.53302
340.283	2.9804
340.497	3.43646
340.711	2.30259
340.924	1.6055
341.138	1.02087
341.352	0.95215
341.566	2.28517
341.78	0.62942
341.993	1.62155
342.207	1.11588
342.421	2.07587
342.635	1.89852
342.848	1.45862
343.062	0.15231
343.276	1.32842
343.49	3.84467
343.703	1.37757
343.917	2.54795
344.131	2.74994
344.344	1.29942
344.558	1.52922
344.771	1.21082
344.985	3.11684
345.199	3.23215
345.412	1.99813
345.626	2.18693
345.839	0.57986
346.053	0.92837
346.266	0.99612
346.48	2.62129
346.693	2.08502
346.907	2.32653
347.12	1.29111
347.334	2.16706
347.547	2.23337
347.76	1.72322
347.974	2.64506
348.187	2.17916
348.401	1.63237
348.614	1.61952
348.827	1.58068
349.041	2.52128
349.254	0.54002
349.467	1.70334
349.681	0.83296
349.894	1.39416
350.107	2.97574
350.32	3.00236
350.534	0.61779
350.747	1.47688
350.96	1.10672
351.173	1.40369
351.386	1.70366
351.6	1.4277
351.813	1.36547
352.026	1.94762
352.239	0.71496
352.452	1.44137
352.665	2.38247
352.878	1.50474
353.092	3.61848
353.305	2.354
353.518	2.13568
353.731	1.14214
353.944	2.80866
354.157	1.1323
354.37	1.17934
354.583	0.95572
354.796	0.52923
355.009	2.69464
355.222	1.82241
355.435	1.846
355.647	2.61887
355.86	0.97001
356.073	1.65358
356.286	1.35941
356.499	2.29125
356.712	1.89904
356.925	2.1623
357.138	2.4078
357.35	0.88535
357.563	1.33216
357.776	1.77466
357.989	1.32584
358.201	2.12509
358.414	1.65577
358.627	2.64958
358.84	1.4599
359.052	0.94829
359.265	0.72525
359.478	2.47694
359.69	-0.39542
359.903	2.01501
360.116	2.14368
360.328	0.35469
360.541	2.317
360.753	0.76466
360.966	1.00546
361.179	1.19134
361.391	1.08981
361.604	0.68623
361.816	1.02601
362.029	0.93008
362.241	0.79983
362.454	0.93818
362.666	0.82184
362.879	1.32444
363.091	1.20417
363.304	0.88591
363.516	1.5432
363.728	0.65054
363.941	1.7457
364.153	0.79159
364.366	0.02844
364.578	0.77698
364.79	1.83823
365.003	1.49143
365.215	1.33775
365.427	1.83747
365.639	2.44278
365.852	1.73659
366.064	3.27881
366.276	1.0153
366.488	1.84337
366.701	1.15327
366.913	1.36916
367.125	1.40615
367.337	0.9928
367.549	1.1422
367.762	1.47389
367.974	1.66459
368.186	0.74024
368.398	2.17623
368.61	1.91123
368.822	1.9556
369.034	1.53894
369.246	1.91565
369.458	3.16659
369.67	0.7395
369.882	2.82065
370.094	0.19338
370.306	2.80987
370.518	1.26654
370.73	0.85364
370.942	0.85077
371.154	1.1972
371.366	0.99591
371.578	1.67713
371.79	0.75859
372.002	2.42092
372.214	2.71665
372.425	1.60411
372.637	2.3642
372.849	1.4366
373.061	-0.07613
373.273	1.69114
373.484	1.8955
373.696	2.05062
373.908	-0.08564
374.12	2.29126
374.331	1.7194
374.543	0.8951
374.755	0.61968
374.967	1.61813
375.178	1.86462
375.39	1.38152
375.602	1.63087
375.813	0.72157
376.025	0.27716
376.236	1.37539
376.448	1.55101
376.66	0.91176
376.871	0.93792
377.083	2.14644
377.294	2.04691
377.506	1.00906
377.717	2.18311
377.929	1.51459
378.14	0.77009
378.352	1.74153
378.563	1.68142
378.775	2.10504
378.986	0.89325
379.197	1.48339
379.409	1.0995
379.62	1.86527
379.832	1.74018
380.043	1.28539
380.254	1.3648
380.466	0.53143
380.677	3.47248
380.888	3.10621
381.1	3.04941
381.311	2.7904
381.522	1.20942
381.733	3.44394
381.945	1.2459
382.156	1.5038
382.367	1.07717
382.578	3.37647
382.789	3.42895
383.001	1.27044
383.212	2.13134
383.423	2.44087
383.634	2.18912
383.845	1.52409
384.056	0.9333
384.267	1.11358
384.478	1.1471
384.69	0.49109
384.901	1.76301
385.112	1.58436
385.323	2.30635
385.534	1.65635
385.745	1.72803
385.956	1.6132
386.167	0.55413
386.378	1.60372
386.588	0.18676
386.799	0.83476
387.01	0.1264
387.221	1.89794
387.432	1.27001
387.643	2.67296
387.854	1.3045
388.065	1.10276
388.275	1.13898
388.486	1.26381
388.697	1.28727
388.908	1.12062
389.119	2.049
389.329	2.42029
389.54	1.28135
389.751	1.68514
389.962	2.15342
390.172	1.53823
390.383	0.90409
390.594	0.96349
390.804	0.74489
391.015	0.70557
391.226	1.39112
391.436	1.51362
391.647	1.48312
391.858	1.6574
392.068	0.20113
392.279	0.39805
392.489	1.2429
392.7	2.11207
392.91	0.4602
393.121	0.74797
393.331	1.57724
393.542	1.93143
393.752	1.4669
393.963	1.17328
394.173	1.16539
394.384	1.67747
394.594	1.24027
394.804	0.39058
395.015	1.27093
395.225	1.52652
395.436	0.63811
395.646	1.80317
395.856	0.66376
396.067	0.47636
396.277	1.94281
396.487	1.41058
396.697	1.05519
396.908	1.77196
397.118	1.81552
397.328	1.32025
397.538	1.96404
397.749	0.76114
397.959	1.81964
398.169	2.07457
398.379	0.40512
398.589	1.71443
398.8	1.41726
399.01	0.86997
399.22	1.21341
399.43	2.79715
399.64	0.81531
399.85	1.88438
400.06	0.95645
400.27	0.85012
400.48	1.40734
400.69	2.2795
400.9	0.94669
401.11	0.84924
401.32	2.08149
401.53	0.89577
401.74	2.41038
401.95	1.92391
402.16	0.43805
402.37	1.40714
402.58	0.79541
402.79	1.74927
403	1.912
403.209	0.9402
403.419	1.9672
403.629	0.80709
403.839	1.70776
404.049	1.77888
404.258	0.55149
404.468	0.61497
404.678	1.65225
404.888	1.50949
405.097	0.50534
405.307	1.25299
405.517	1.50476
405.727	1.25289
405.936	1.11203
406.146	1.38376
406.356	2.17231
406.565	1.16557
406.775	0.64615
406.984	0.73198
407.194	2.465
407.404	1.37079
407.613	1.48909
407.823	1.84874
408.032	1.9684
408.242	2.06961
408.451	1.1417
408.661	1.13861
408.87	2.3936
409.08	0.86634
409.289	1.69221
409.499	1.25079
409.708	1.52491
409.918	0.07639
410.127	1.27004
410.336	2.434
410.546	1.74805
410.755	0.9627
410.964	1.05922
411.174	0.71268
411.383	1.72881
411.592	1.64592
411.802	0.63352
412.011	1.92753
412.22	1.28214
412.429	2.37523
412.639	2.23069
412.848	2.24309
413.057	2.45431
413.266	2.18999
413.475	1.41013
413.685	1.98068
413.894	1.86656
414.103	2.26186
414.312	1.99832
414.521	1.39143
414.73	1.62942
414.939	2.70826
415.148	1.79977
415.357	1.72734
415.566	1.23228
415.776	1.28809
415.985	1.04344
416.194	1.79688
416.403	2.30596
416.611	0.38934
416.82	0.90645
417.029	1.36164
417.238	0.86017
417.447	0.61245
417.656	1.00771
417.865	0.75807
418.074	0.92816
418.283	1.14763
418.492	1.82101
418.7	1.61009
418.909	2.38102
419.118	1.48964
419.327	1.76151
419.536	1.43892
419.744	1.10681
419.953	2.07209
420.162	2.22693
420.371	0.95975
420.579	0.90356
420.788	1.99464
420.997	1.95649
421.205	1.93567
421.414	1.72067
421.623	1.62517
421.831	1.25283
422.04	2.01354
422.249	1.22574
422.457	1.89849
422.666	1.16674
422.874	2.27142
423.083	2.36855
423.291	2.06513
423.5	1.81552
423.708	2.01529
423.917	2.46479
424.125	1.81464
424.334	1.54775
424.542	3.38627
424.751	2.64532
424.959	2.35744
425.167	2.76485
425.376	2.59083
425.584	2.00493
425.793	2.21862
426.001	1.39349
426.209	2.26488
426.418	1.37998
426.626	1.42084
426.834	1.07213
427.042	1.5237
427.251	1.27662
427.459	2.04037
427.667	1.73116
427.875	0.97085
