Data from WindowProjectSample_Transmission__15__00015.txt Node

Date: Sat May 03 15:09:29 EDT 2025
User: jessi
Spectrometer: SR400872
Trigger mode: 0
Integration Time (sec): 5.000010E-1
Scans to average: 6
Electric dark correction enabled: true
Nonlinearity correction enabled: true
Boxcar width: 0
XAxis mode: Wavelengths
Number of Pixels in Spectrum: 3648
>>>>>Begin Spectral Data<<<<<
184.909	18058.98662
185.132	2575.46201
185.355	23552.52666
185.578	-8310.43566
185.801	377.53259
186.024	-1450.00338
186.247	899.80551
186.47	1858.22644
186.693	-452.26392
186.916	-3067.29541
187.139	-2623.33326
187.362	1429.79266
187.585	3182.84812
187.808	-3658.75572
188.031	-210.44841
188.254	-1248.07254
188.476	-728.04734
188.699	2375.56894
188.922	-821.31376
189.145	-9703.55891
189.368	-253.19391
189.591	-1476.75842
189.813	-1674.34694
190.036	1260.85339
190.259	1607.9161
190.482	552.80187
190.705	10356.10459
190.927	-1043.29116
191.15	3460.1608
191.373	2275.9545
191.595	-2180.57564
191.818	2599.11576
192.041	-311.06531
192.263	2639.34446
192.486	1814.93244
192.709	-5531.28072
192.931	2673.5353
193.154	-6202.89334
193.377	186550.73797
193.599	1550.75914
193.822	1829.09308
194.044	-2052.04963
194.267	466.86971
194.489	-343.97986
194.712	1432.68971
194.934	3390.02692
195.157	-16982.86492
195.379	761.59113
195.602	1926.57137
195.824	1969.09734
196.047	2441.96204
196.269	2864.16929
196.492	2992.62996
196.714	2692.697
196.936	1116.65382
197.159	1349.48282
197.381	-2444.53847
197.604	-694.22649
197.826	6411.90312
198.048	3032.31415
198.271	4183.13586
198.493	2149.45208
198.715	-5918.23835
198.938	-653.76651
199.16	1759.00356
199.382	1408.03844
199.604	-631.67075
199.827	9011.1914
200.049	921.26202
200.271	-3113.30379
200.493	-53280.12261
200.715	2133.50793
200.938	6450.34156
201.16	-7079.20446
201.382	-3079.45475
201.604	-2039.92714
201.826	6936.94881
202.048	881.36397
202.27	-16996.1329
202.492	4795.26015
202.715	-1111.63996
202.937	4385.69015
203.159	-2283.7622
203.381	872.20984
203.603	-3732.55453
203.825	-2428.04453
204.047	3229.04777
204.269	-2203.85115
204.491	2069.22101
204.713	1757.70702
204.935	14683.38141
205.156	1576.7842
205.378	-7765.82117
205.6	-3952.91381
205.822	8673.55426
206.044	-582.92994
206.266	3999.16047
206.488	1100.82825
206.71	28483.84341
206.932	2390.8128
207.153	-4755.86734
207.375	-1835.17893
207.597	8783.96922
207.819	4190.54981
208.041	2161.29748
208.262	-2661.757
208.484	-1156.90078
208.706	-2659.51656
208.927	26871.00688
209.149	918.31284
209.371	-6254.42326
209.593	1198.44036
209.814	4654.75675
210.036	-2994.80043
210.258	-5584.28616
210.479	-1271.62997
210.701	890.01852
210.922	6726.06729
211.144	-1168.17828
211.366	-5436.28964
211.587	-573.6654
211.809	9292.54588
212.03	-1188.49176
212.252	-1997.86504
212.473	773.4095
212.695	-2132.60933
212.916	2813.79256
213.138	3495.36355
213.359	-1820.28097
213.581	6650.20953
213.802	-1473.05615
214.024	17333.49084
214.245	-3054.85501
214.466	-690.06308
214.688	1548.47003
214.909	927.59349
215.131	-93684.13729
215.352	1466.81017
215.573	2405.43759
215.795	2838.11214
216.016	4147.93009
216.237	-556.52722
216.459	6689.22606
216.68	105083.15789
216.901	-85642.96383
217.122	1639.7636
217.344	5925.97526
217.565	-55706.9144
217.786	1510.80775
218.007	1952.5163
218.228	-1096.62862
218.45	-1177.97924
218.671	-1236.78245
218.892	1117.27047
219.113	-20169.5905
219.334	-313.47791
219.555	-5148.88295
219.776	1528.43957
219.997	3359.54014
220.219	1079.08943
220.44	2499.37425
220.661	-2928.22474
220.882	3546.45868
221.103	-1228.81527
221.324	934.08205
221.545	2186.58445
221.766	-5971.87572
221.987	4189.49664
222.208	-1748.1996
222.429	3480.97513
222.65	-96.36733
222.87	-515.46216
223.091	8202.90022
223.312	2423.50091
223.533	5997.91471
223.754	1862.05769
223.975	1411.36741
224.196	-11118.93529
224.417	1020.26228
224.637	951.38762
224.858	-394.925
225.079	6153.06196
225.3	555.65788
225.521	2058.53422
225.741	1443.81998
225.962	722.30252
226.183	282.68991
226.404	685.19062
226.624	586.60033
226.845	367.9496
227.066	405.59345
227.286	190.96229
227.507	88.65165
227.728	78.93926
227.948	121.01272
228.169	37.08062
228.389	46.32706
228.61	23.54265
228.831	34.86951
229.051	3.02868
229.272	21.1743
229.492	29.96946
229.713	9.25228
229.933	23.16595
230.154	19.84749
230.374	30.90912
230.595	24.11784
230.815	15.89567
231.036	21.61759
231.256	-3.71338
231.477	41.26269
231.697	24.87386
231.917	25.49656
232.138	38.24512
232.358	71.623
232.579	64.99732
232.799	6.9969
233.019	66.00108
233.24	77.21674
233.46	21.72314
233.68	40.73974
233.901	28.38146
234.121	17.20202
234.341	7.65931
234.561	-1.59637
234.782	15.24595
235.002	45.55965
235.222	-1.6628
235.442	40.70063
235.662	20.29997
235.883	43.69159
236.103	35.53913
236.323	25.12206
236.543	18.99718
236.763	28.76288
236.983	28.24725
237.203	29.00997
237.423	43.46112
237.643	61.60455
237.864	51.98805
238.084	13.06828
238.304	21.26951
238.524	32.19782
238.744	29.21273
238.964	45.8248
239.184	43.20023
239.404	44.46856
239.624	22.09851
239.843	39.91966
240.063	21.95142
240.283	16.24622
240.503	16.53059
240.723	16.06106
240.943	7.91408
241.163	13.76332
241.383	10.28367
241.603	5.23492
241.822	6.01671
242.042	4.17607
242.262	5.7054
242.482	6.51726
242.702	8.32634
242.921	2.59882
243.141	5.65324
243.361	4.96459
243.581	7.14533
243.8	5.91911
244.02	3.80375
244.24	7.41745
244.459	7.80687
244.679	14.52702
244.899	8.78118
245.118	10.71361
245.338	8.85758
245.558	10.30963
245.777	6.76068
245.997	7.16284
246.216	7.54137
246.436	4.14488
246.655	3.17822
246.875	2.49027
247.094	4.86528
247.314	1.69815
247.533	2.7932
247.753	3.67958
247.972	2.81948
248.192	1.05759
248.411	1.64812
248.631	3.4719
248.85	3.75751
249.07	2.72716
249.289	5.15918
249.508	3.55223
249.728	6.2386
249.947	6.55355
250.166	6.14526
250.386	3.56385
250.605	5.31436
250.824	8.3167
251.044	5.26739
251.263	20.65134
251.482	10.39692
251.701	9.85203
251.921	-0.32255
252.14	2.87284
252.359	3.59563
252.578	7.78261
252.798	3.09207
253.017	7.28187
253.236	3.72882
253.455	4.57396
253.674	9.58309
253.893	4.03351
254.112	5.92708
254.331	9.61614
254.551	6.41834
254.77	3.8692
254.989	11.55364
255.208	9.95083
255.427	11.54728
255.646	10.87836
255.865	16.47113
256.084	6.55967
256.303	7.84142
256.522	11.28909
256.741	1.51541
256.96	2.88086
257.179	7.42766
257.397	8.53166
257.616	4.05934
257.835	5.20452
258.054	11.90379
258.273	6.81478
258.492	9.04657
258.711	5.20607
258.93	2.20106
259.148	3.24927
259.367	3.52306
259.586	4.42205
259.805	1.93051
260.023	4.03118
260.242	3.12027
260.461	2.2659
260.68	1.21083
260.898	3.73227
261.117	1.22805
261.336	0.94091
261.554	3.22593
261.773	3.37457
261.992	0.73819
262.21	3.07591
262.429	3.66326
262.648	6.24605
262.866	6.73742
263.085	4.71856
263.303	4.21521
263.522	7.28708
263.74	7.85598
263.959	12.2588
264.178	6.47689
264.396	6.04801
264.615	4.03801
264.833	9.71211
265.051	8.42941
265.27	7.79948
265.488	9.20574
265.707	5.68203
265.925	8.86688
266.144	4.49501
266.362	5.1628
266.58	5.53051
266.799	4.19865
267.017	5.16543
267.235	4.55747
267.454	2.64521
267.672	1.42018
267.89	3.54806
268.109	3.96906
268.327	3.63089
268.545	0.96732
268.763	3.78123
268.982	1.22787
269.2	4.25988
269.418	2.5622
269.636	1.73823
269.854	3.33826
270.073	2.82237
270.291	1.50415
270.509	1.65047
270.727	3.71057
270.945	6.00544
271.163	6.00901
271.381	1.15624
271.599	2.22291
271.817	4.48725
272.036	1.693
272.254	2.66034
272.472	1.84963
272.69	1.85935
272.908	2.13129
273.126	3.85681
273.344	4.4523
273.562	1.66863
273.779	2.44897
273.997	3.30521
274.215	3.59629
274.433	2.66251
274.651	3.69639
274.869	3.87968
275.087	2.51144
275.305	3.72482
275.523	1.6119
275.74	2.89691
275.958	4.94928
276.176	6.57913
276.394	2.08876
276.612	2.86669
276.829	2.60048
277.047	2.33143
277.265	2.54298
277.483	3.03794
277.7	3.83366
277.918	3.2767
278.136	5.50857
278.353	2.50239
278.571	1.21266
278.789	4.30473
279.006	0.76311
279.224	2.74271
279.442	4.39629
279.659	2.8054
279.877	1.7562
280.094	4.40249
280.312	0.92828
280.529	2.92652
280.747	0.67012
280.964	2.24906
281.182	5.37687
281.399	2.32198
281.617	3.35398
281.834	2.31585
282.052	2.03053
282.269	2.72606
282.487	2.07135
282.704	1.58668
282.921	2.07897
283.139	2.79279
283.356	3.72189
283.574	2.90315
283.791	1.71396
284.008	4.65776
284.226	2.48078
284.443	2.88164
284.66	3.51976
284.877	2.9883
285.095	2.04841
285.312	1.31261
285.529	0.85163
285.746	0.69657
285.964	1.78816
286.181	1.10238
286.398	1.84235
286.615	2.41435
286.832	2.35527
287.05	0.71082
287.267	1.62946
287.484	2.48522
287.701	2.51194
287.918	2.23874
288.135	2.53982
288.352	1.21505
288.569	1.42507
288.786	1.9313
289.003	1.62413
289.22	2.52091
289.437	1.56883
289.654	2.5208
289.871	2.79851
290.088	2.58721
290.305	2.14025
290.522	1.66634
290.739	1.94501
290.956	2.85014
291.173	3.39633
291.39	3.11012
291.607	2.30319
291.824	1.53216
292.04	0.79361
292.257	2.64375
292.474	2.98248
292.691	1.76726
292.908	0.89962
293.125	1.84123
293.341	0.8442
293.558	4.52525
293.775	1.84591
293.992	1.86689
294.208	0.89004
294.425	1.14513
294.642	1.4859
294.858	2.30717
295.075	0.71586
295.292	1.66868
295.508	2.12463
295.725	3.50567
295.942	1.68766
296.158	1.13781
296.375	1.98207
296.591	1.44108
296.808	1.6482
297.024	1.80405
297.241	2.00695
297.458	2.24543
297.674	0.2349
297.891	1.69389
298.107	1.41501
298.323	0.99716
298.54	2.60907
298.756	1.192
298.973	0.56776
299.189	2.73034
299.406	1.13424
299.622	2.73154
299.838	2.5607
300.055	2.4641
300.271	0.82156
300.487	0.94527
300.704	1.12253
300.92	0.80887
301.136	3.75798
301.353	2.55529
301.569	1.88511
301.785	2.13708
302.001	2.5098
302.218	2.28146
302.434	2.20031
302.65	0.7011
302.866	1.47667
303.083	3.54869
303.299	3.40779
303.515	1.87123
303.731	2.16207
303.947	0.80936
304.163	1.24205
304.379	2.20536
304.595	2.42151
304.812	1.4818
305.028	1.19575
305.244	1.56254
305.46	2.47265
305.676	2.63968
305.892	3.34321
306.108	2.13641
306.324	1.45904
306.54	3.62177
306.756	2.5434
306.972	2.34038
307.187	1.795
307.403	3.13586
307.619	1.28348
307.835	2.82211
308.051	3.20818
308.267	0.8178
308.483	2.78623
308.699	2.33486
308.914	2.1205
309.13	1.77886
309.346	0.69204
309.562	1.16973
309.778	0.75731
309.993	2.41108
310.209	1.93364
310.425	0.89645
310.641	1.73758
310.856	1.06447
311.072	1.07822
311.288	1.80973
311.503	2.18642
311.719	0.56358
311.935	0.45154
312.15	2.24749
312.366	2.05449
312.581	2.55081
312.797	2.0907
313.013	2.60065
313.228	1.57509
313.444	1.9519
313.659	1.42822
313.875	2.33241
314.09	1.72662
314.306	2.86138
314.521	2.53196
314.737	2.58697
314.952	2.23202
315.168	1.87843
315.383	2.53308
315.599	1.69395
315.814	1.69782
316.029	2.38648
316.245	1.08489
316.46	0.73893
316.675	3.01467
316.891	3.79369
317.106	4.53003
317.321	2.76346
317.537	2.56852
317.752	2.83474
317.967	2.91998
318.183	1.33985
318.398	1.7271
318.613	2.91868
318.828	3.40133
319.043	2.67356
319.259	1.5246
319.474	2.29441
319.689	2.99833
319.904	0.61091
320.119	3.05003
320.334	2.32471
320.549	1.79294
320.765	3.02567
320.98	2.38895
321.195	2.92823
321.41	2.07512
321.625	2.69083
321.84	3.77248
322.055	3.85824
322.27	1.65123
322.485	1.13442
322.7	2.21356
322.915	2.99651
323.13	1.52365
323.345	3.46226
323.56	2.44318
323.775	2.78807
323.989	2.55562
324.204	2.30901
324.419	2.82548
324.634	1.25782
324.849	1.96896
325.064	4.4392
325.279	3.15496
325.493	2.76833
325.708	3.0277
325.923	1.48082
326.138	1.64744
326.352	3.49875
326.567	2.92358
326.782	1.81497
326.997	1.62986
327.211	2.47896
327.426	2.4753
327.641	2.03896
327.855	0.78927
328.07	2.75054
328.285	3.80606
328.499	1.92029
328.714	2.77015
328.928	2.91522
329.143	2.29125
329.358	3.24223
329.572	3.08717
329.787	3.44328
330.001	4.38788
330.216	0.88463
330.43	3.77528
330.645	3.53357
330.859	2.96272
331.074	1.5872
331.288	2.34182
331.503	3.63537
331.717	1.44296
331.931	2.27935
332.146	2.42971
332.36	3.80952
332.575	2.75012
332.789	2.46491
333.003	2.40031
333.218	2.89526
333.432	2.00362
333.646	2.92044
333.86	3.77038
334.075	3.7002
334.289	2.04442
334.503	1.50099
334.717	3.03673
334.932	2.69313
335.146	3.44731
335.36	1.7851
335.574	2.85203
335.788	2.64237
336.003	3.37713
336.217	3.07728
336.431	2.85697
336.645	1.7302
336.859	1.35827
337.073	2.18991
337.287	2.67279
337.501	1.34846
337.715	2.75509
337.929	2.9523
338.143	1.63084
338.357	2.38896
338.571	1.82752
338.785	3.17542
338.999	1.95547
339.213	2.16819
339.427	1.34086
339.641	3.38733
339.855	2.18673
340.069	1.88005
340.283	3.44567
340.497	3.91495
340.711	2.70311
340.924	2.45112
341.138	1.6382
341.352	1.2865
341.566	2.70713
341.78	1.32633
341.993	1.98863
342.207	1.65603
342.421	2.80102
342.635	2.50297
342.848	2.20327
343.062	0.60577
343.276	2.04743
343.49	4.29098
343.703	2.09356
343.917	3.1466
344.131	3.32328
344.344	1.79972
344.558	2.0009
344.771	1.65099
344.985	3.67796
345.199	4.04881
345.412	2.68182
345.626	2.81611
345.839	1.20074
346.053	1.54724
346.266	1.584
346.48	3.01797
346.693	2.76149
346.907	3.13486
347.12	1.75972
347.334	2.79687
347.547	2.82232
347.76	2.56628
347.974	3.58319
348.187	2.6715
348.401	2.27416
348.614	1.91712
348.827	2.25584
349.041	3.03074
349.254	1.08845
349.467	2.31035
349.681	1.51491
349.894	1.90291
350.107	3.60259
350.32	3.93672
350.534	1.24266
350.747	2.17119
350.96	1.75659
351.173	1.98974
351.386	2.34031
351.6	2.10375
351.813	2.19124
352.026	2.46614
352.239	1.69986
352.452	2.14906
352.665	3.21838
352.878	2.26758
353.092	4.53131
353.305	3.03961
353.518	2.87539
353.731	1.86214
353.944	3.50559
354.157	2.00537
354.37	1.97677
354.583	1.6442
354.796	1.39075
355.009	3.41339
355.222	2.56404
355.435	2.70215
355.647	3.49219
355.86	1.89842
356.073	2.52965
356.286	2.11144
356.499	3.31579
356.712	3.16413
356.925	3.02558
357.138	3.38051
357.35	1.9222
357.563	2.44812
357.776	2.89334
357.989	2.71466
358.201	3.13074
358.414	2.86676
358.627	3.7617
358.84	2.53745
359.052	1.82808
359.265	1.99218
359.478	3.5826
359.69	0.64006
359.903	3.18075
360.116	3.4598
360.328	1.50436
360.541	3.39994
360.753	2.07043
360.966	2.3429
361.179	2.61122
361.391	2.5294
361.604	2.18036
361.816	2.53071
362.029	2.40696
362.241	2.38043
362.454	2.6461
362.666	2.27239
362.879	3.05965
363.091	2.69838
363.304	2.39566
363.516	2.72482
363.728	2.12828
363.941	3.23128
364.153	2.76069
364.366	1.39991
364.578	2.02922
364.79	3.22227
365.003	3.00829
365.215	2.59044
365.427	3.23297
365.639	3.62099
365.852	3.15828
366.064	4.33089
366.276	2.50003
366.488	3.24323
366.701	2.69529
366.913	2.78969
367.125	2.90624
367.337	2.44402
367.549	2.64177
367.762	2.90212
367.974	2.93547
368.186	2.64592
368.398	3.71857
368.61	3.28731
368.822	3.43255
369.034	3.01224
369.246	3.6886
369.458	5.11311
369.67	2.36161
369.882	4.37771
370.094	1.58171
370.306	4.21681
370.518	2.82918
370.73	2.47958
370.942	2.5317
371.154	2.97271
371.366	2.69691
371.578	3.49291
371.79	2.78074
372.002	4.03393
372.214	4.75115
372.425	3.16309
372.637	4.29905
372.849	3.38886
373.061	1.65284
373.273	3.65374
373.484	3.53859
373.696	4.02567
373.908	1.65528
374.12	3.94808
374.331	3.78639
374.543	2.77816
374.755	2.53636
374.967	3.37539
375.178	4.10325
375.39	3.27677
375.602	3.4427
375.813	2.53914
376.025	2.55452
376.236	3.43473
376.448	3.55246
376.66	3.24745
376.871	3.24696
377.083	4.26996
377.294	4.78928
377.506	3.38068
377.717	4.50275
377.929	3.93654
378.14	3.37585
378.352	3.99471
378.563	4.12577
378.775	4.80045
378.986	3.12579
379.197	4.00244
379.409	3.32211
379.62	4.1091
379.832	3.9441
380.043	3.68259
380.254	3.81766
380.466	2.9223
380.677	5.86193
380.888	5.38649
381.1	5.77096
381.311	5.60353
381.522	4.12613
381.733	6.13755
381.945	3.89295
382.156	3.80099
382.367	3.90309
382.578	5.94191
382.789	6.24071
383.001	3.65731
383.212	5.2115
383.423	5.26884
383.634	4.76334
383.845	4.45733
384.056	3.70006
384.267	4.21331
384.478	4.20125
384.69	3.39371
384.901	4.6335
385.112	4.28266
385.323	5.43154
385.534	4.80814
385.745	4.90396
385.956	4.56356
386.167	3.79453
386.378	4.656
386.588	3.94751
386.799	3.79249
387.01	3.32232
387.221	5.12581
387.432	4.54814
387.643	5.87311
387.854	4.36303
388.065	4.3583
388.275	4.40101
388.486	4.27428
388.697	4.59197
388.908	4.35127
389.119	5.47226
389.329	5.81414
389.54	4.70186
389.751	5.10151
389.962	5.70047
390.172	4.78582
390.383	4.59344
390.594	4.31759
390.804	4.21294
391.015	4.27336
391.226	4.99779
391.436	5.41773
391.647	5.33722
391.858	5.42252
392.068	4.04821
392.279	4.32551
392.489	5.3614
392.7	5.78195
392.91	4.76939
393.121	4.62814
393.331	5.46479
393.542	5.96463
393.752	5.72577
393.963	5.42281
394.173	5.40591
394.384	5.68914
394.594	5.27933
394.804	4.52357
395.015	5.27145
395.225	5.68005
395.436	4.83752
395.646	5.75966
395.856	5.13395
396.067	4.29619
396.277	6.01094
396.487	5.66075
396.697	5.747
396.908	6.02413
397.118	5.90176
397.328	5.40793
397.538	6.20551
397.749	4.91865
397.959	6.09586
398.169	5.81973
398.379	4.54692
398.589	5.80338
398.8	5.82259
399.01	5.57292
399.22	5.46328
399.43	6.9909
399.64	5.43107
399.85	6.17021
400.06	5.64493
400.27	5.2596
400.48	5.65313
400.69	6.45833
400.9	5.43735
401.11	5.0593
401.32	6.19901
401.53	5.26633
401.74	6.55857
401.95	6.06938
402.16	5.35068
402.37	5.89556
402.58	5.3257
402.79	6.29514
403	6.35156
403.209	5.31541
403.419	6.42999
403.629	5.37268
403.839	6.45089
404.049	6.41033
404.258	5.51903
404.468	5.62778
404.678	6.56647
404.888	6.84966
405.097	5.94994
405.307	6.13637
405.517	6.55512
405.727	6.31357
405.936	5.96384
406.146	6.35601
406.356	7.07213
406.565	6.22821
406.775	5.79658
406.984	5.99192
407.194	7.70303
407.404	6.30621
407.613	6.65909
407.823	6.6498
408.032	7.01912
408.242	6.70278
408.451	6.08576
408.661	6.19939
408.87	7.34597
409.08	5.67498
409.289	6.59856
409.499	6.4181
409.708	6.33334
409.918	4.99747
410.127	6.43405
410.336	7.30094
410.546	6.98213
410.755	5.99774
410.964	6.33313
411.174	5.75306
411.383	6.73627
411.592	6.76324
411.802	5.96468
412.011	6.94183
412.22	6.47673
412.429	7.47834
412.639	7.68791
412.848	7.28524
413.057	7.79173
413.266	7.07538
413.475	6.55232
413.685	7.02107
413.894	7.01224
414.103	7.18204
414.312	7.15837
414.521	6.56334
414.73	6.78342
414.939	7.9052
415.148	6.95637
415.357	6.88565
415.566	6.51792
415.776	6.47951
415.985	6.64377
416.194	7.25867
416.403	8.02
416.611	6.14746
416.82	6.47813
417.029	7.16171
417.238	6.64758
417.447	6.57787
417.656	6.99092
417.865	6.69314
418.074	7.16673
418.283	7.85608
418.492	8.71818
418.7	8.70631
418.909	9.94291
419.118	8.98016
419.327	9.47089
419.536	9.22398
419.744	9.38932
419.953	10.62106
420.162	10.97465
420.371	10.13542
420.579	10.65519
420.788	11.60038
420.997	11.80679
421.205	12.14137
421.414	12.01416
421.623	12.11606
421.831	11.53532
422.04	12.29692
422.249	11.4368
422.457	11.71275
422.666	10.75578
422.874	11.85611
423.083	11.79407
423.291	11.59303
423.5	11.5766
423.708	11.96605
423.917	12.64357
424.125	11.85088
424.334	11.83989
424.542	13.69775
424.751	13.0731
424.959	12.66
425.167	12.91987
425.376	12.66129
425.584	11.56446
425.793	11.44596
426.001	10.35164
426.209	10.60847
426.418	9.37455
426.626	8.70587
426.834	8.41722
427.042	8.33027
427.251	7.93161
