Data from WindowProjectSample_Transmission__44__00044__0008531536810468698.txt Node

Date: Mon May 05 18:00:06 EDT 2025
User: jessi
Spectrometer: SR400872
Trigger mode: 0
Integration Time (sec): 5.000010E-1
Scans to average: 20
Electric dark correction enabled: true
Nonlinearity correction enabled: true
Boxcar width: 0
XAxis mode: Wavelengths
Number of Pixels in Spectrum: 3648
>>>>>Begin Spectral Data<<<<<
184.909	21437.8772
185.132	-5520.1707
185.355	-3242.3992
185.578	-19038.57949
185.801	1679.59409
186.024	10843.45814
186.247	-1896.28063
186.47	1306.39118
186.693	437.36033
186.916	297.64339
187.139	-3900.8968
187.362	3842.18307
187.585	4232.49515
187.808	3643.2362
188.031	-91.31921
188.254	-54257.73361
188.476	-726.05015
188.699	6199.52678
188.922	721.08391
189.145	-15909.73484
189.368	-689.84215
189.591	-1469.1182
189.813	3199.84962
190.036	-49563.50733
190.259	-919.08672
190.482	-4633.97325
190.705	7278.24814
190.927	-2634.25268
191.15	13565.51824
191.373	3405.21131
191.595	-8954.32287
191.818	-4283.56043
192.041	-5698.63901
192.263	-3395.54288
192.486	-872.73352
192.709	-4020.2529
192.931	8256.03506
193.154	-29524.45928
193.377	-2980.48989
193.599	-2504.01131
193.822	-9481.42564
194.044	-2094.34578
194.267	1149.94749
194.489	274.02339
194.712	-44226.78233
194.934	-33326.06118
195.157	1252.92389
195.379	1437.90661
195.602	-7141.0682
195.824	-1327.15981
196.047	-9290.85036
196.269	2835.6234
196.492	-6847.35342
196.714	28944.03558
196.936	-8824.38807
197.159	-1272.27587
197.381	1083.02909
197.604	382.68789
197.826	12427.15456
198.048	-11367.66707
198.271	-2823.90648
198.493	7686.3123
198.715	2407.42373
198.938	-556.58639
199.16	7043.21043
199.382	-103782.2988
199.604	2836.59909
199.827	-1133.71219
200.049	-3016.05551
200.271	13898.53643
200.493	1206.60053
200.715	-36900.28889
200.938	-6275.14332
201.16	-4155.08784
201.382	20782.13074
201.604	2335.41094
201.826	2364.44513
202.048	-1922.33209
202.27	-2001.39002
202.492	-36832.03531
202.715	2985.76486
202.937	-4678.1604
203.159	-6688.61358
203.381	1513.30768
203.603	6616.89737
203.825	6517.56677
204.047	2247.23704
204.269	-2839.63148
204.491	2237.64347
204.713	5743.94627
204.935	-497178.4068
205.156	1223.12191
205.378	-2906.76149
205.6	1604.70189
205.822	158510.30569
206.044	-1001.73215
206.266	1610.72502
206.488	4912.55273
206.71	-5394.25116
206.932	1092.77262
207.153	12726.64729
207.375	-7134.94522
207.597	-40176.76558
207.819	-2772.71759
208.041	2554.09626
208.262	508.27294
208.484	721.9749
208.706	-849.38788
208.927	-852.73242
209.149	539.09059
209.371	-2982.00769
209.593	-128.60368
209.814	-935.62697
210.036	628.68985
210.258	-675.34485
210.479	1733.99902
210.701	1697.00503
210.922	3285.46742
211.144	-4318.27586
211.366	2177.45834
211.587	7578.26343
211.809	-8405.39777
212.03	2342.12313
212.252	429.29491
212.473	2127.07805
212.695	-5867.66869
212.916	3033.96951
213.138	-748.12668
213.359	3887.77181
213.581	5399.44375
213.802	-719.77795
214.024	1162.36582
214.245	2119.28686
214.466	2627.28349
214.688	-3072.29465
214.909	-1291.77199
215.131	-1801.03079
215.352	-3085.10655
215.573	15290.39446
215.795	5256.30335
216.016	5591.05607
216.237	870.9438
216.459	3666.38582
216.68	1759.53045
216.901	5080.00651
217.122	-3014.63507
217.344	-11979.03684
217.565	3617.74437
217.786	9192.7455
218.007	15722.53031
218.228	-876.26734
218.45	6008.11867
218.671	757.0791
218.892	38258.8085
219.113	1628.7871
219.334	-383.72291
219.555	10740.17813
219.776	3164.89124
219.997	23509.94544
220.219	2991.18158
220.44	-10729.43006
220.661	466.54048
220.882	1568.21785
221.103	-1035.96498
221.324	2281.43598
221.545	2330.01274
221.766	-9363.40306
221.987	872.54152
222.208	1814.09095
222.429	4410.04145
222.65	150.80389
222.87	19728.12559
223.091	786.93184
223.312	565.56863
223.533	1404.43199
223.754	1516.97292
223.975	1381.15357
224.196	2039.17464
224.417	1356.64685
224.637	636.51818
224.858	56.30842
225.079	1076.14255
225.3	662.24856
225.521	3817.578
225.741	496.84273
225.962	528.42919
226.183	150.18571
226.404	680.69121
226.624	441.15852
226.845	675.4434
227.066	409.39158
227.286	252.91532
227.507	131.13447
227.728	119.57058
227.948	240.52898
228.169	75.76851
228.389	88.69477
228.61	47.13701
228.831	64.69264
229.051	2.80329
229.272	39.10462
229.492	58.03572
229.713	13.78338
229.933	37.31245
230.154	32.33491
230.374	56.31815
230.595	38.42423
230.815	24.73711
231.036	39.73637
231.256	-9.29679
231.477	71.47619
231.697	40.55549
231.917	42.98634
232.138	54.62032
232.358	109.14015
232.579	108.24859
232.799	19.32694
233.019	103.9675
233.24	115.19586
233.46	37.21615
233.68	64.08196
233.901	47.87337
234.121	26.45008
234.341	12.28758
234.561	-8.44836
234.782	22.64351
235.002	70.03236
235.222	-4.64441
235.442	67.81352
235.662	33.31508
235.883	60.88518
236.103	50.80125
236.323	36.67727
236.543	30.23795
236.763	41.3026
236.983	43.77284
237.203	42.65371
237.423	64.53929
237.643	89.29579
237.864	75.56351
238.084	16.75738
238.304	25.9878
238.524	47.01919
238.744	39.95695
238.964	76.33256
239.184	64.91169
239.404	65.94236
239.624	32.49343
239.843	62.13005
240.063	37.38226
240.283	22.50503
240.503	27.31892
240.723	25.24075
240.943	14.00109
241.163	21.55169
241.383	15.40892
241.603	7.17008
241.822	10.35426
242.042	5.78459
242.262	8.42711
242.482	9.73396
242.702	10.98277
242.921	2.93134
243.141	6.48269
243.361	6.7679
243.581	9.65047
243.8	7.66203
244.02	5.23683
244.24	9.56568
244.459	9.06502
244.679	18.69818
244.899	11.45212
245.118	13.34636
245.338	12.49535
245.558	14.13087
245.777	8.44908
245.997	10.56996
246.216	10.74805
246.436	6.49198
246.655	4.84896
246.875	3.18523
247.094	6.38864
247.314	2.03751
247.533	3.71087
247.753	4.5571
247.972	3.5337
248.192	1.37604
248.411	1.94193
248.631	3.57385
248.85	4.77307
249.07	3.95891
249.289	6.26746
249.508	5.05159
249.728	7.70843
249.947	7.20649
250.166	8.55791
250.386	4.29783
250.605	7.10785
250.824	10.70881
251.044	7.46279
251.263	29.76784
251.482	14.99319
251.701	12.38072
251.921	-0.40118
252.14	3.26221
252.359	3.98002
252.578	10.19125
252.798	3.71198
253.017	9.17601
253.236	3.87848
253.455	5.96412
253.674	11.07012
253.893	5.07729
254.112	7.88092
254.331	12.52744
254.551	8.31755
254.77	3.29447
254.989	13.72487
255.208	8.87758
255.427	15.39868
255.646	12.51183
255.865	22.11334
256.084	8.80081
256.303	10.79401
256.522	14.14527
256.741	2.63427
256.96	2.73474
257.179	8.65616
257.397	10.9837
257.616	5.69403
257.835	6.04192
258.054	15.45033
258.273	10.80597
258.492	11.29363
258.711	7.09085
258.93	3.1855
259.148	4.9219
259.367	4.7649
259.586	5.79487
259.805	2.45358
260.023	5.52669
260.242	4.09997
260.461	2.96379
260.68	1.30054
260.898	4.67484
261.117	1.45197
261.336	1.03367
261.554	3.49445
261.773	3.50563
261.992	0.70617
262.21	3.5219
262.429	3.66171
262.648	7.62264
262.866	8.10077
263.085	5.82995
263.303	4.79245
263.522	9.0314
263.74	9.2137
263.959	15.87175
264.178	7.39146
264.396	6.51549
264.615	4.65632
264.833	11.2038
265.051	9.07374
265.27	10.98597
265.488	11.35084
265.707	6.33286
265.925	11.76514
266.144	4.79162
266.362	5.72054
266.58	5.56557
266.799	4.99348
267.017	6.39689
267.235	5.58392
267.454	3.15074
267.672	1.93771
267.89	4.38668
268.109	4.80074
268.327	4.45967
268.545	0.89592
268.763	4.27914
268.982	1.22652
269.2	4.38896
269.418	3.17208
269.636	1.93611
269.854	5.10731
270.073	3.22697
270.291	1.75252
270.509	1.73687
270.727	4.56473
270.945	7.63442
271.163	7.51458
271.381	1.3079
271.599	3.39954
271.817	5.5838
272.036	1.71315
272.254	3.24382
272.472	2.59227
272.69	2.85228
272.908	2.43738
273.126	4.54355
273.344	5.44767
273.562	1.88744
273.779	2.75377
273.997	3.91034
274.215	4.32445
274.433	2.99288
274.651	4.53632
274.869	4.89045
275.087	2.86576
275.305	4.12725
275.523	2.53534
275.74	2.96375
275.958	5.70675
276.176	8.68174
276.394	2.476
276.612	3.34195
276.829	3.24958
277.047	2.59592
277.265	2.99309
277.483	3.81339
277.7	4.25114
277.918	3.33851
278.136	6.66019
278.353	2.92045
278.571	1.84922
278.789	4.44958
279.006	0.97167
279.224	3.15245
279.442	5.38216
279.659	3.56641
279.877	2.5196
280.094	6.06488
280.312	0.77815
280.529	3.55403
280.747	0.86763
280.964	2.74763
281.182	6.26737
281.399	2.79997
281.617	4.05259
281.834	2.57816
282.052	1.89012
282.269	3.37043
282.487	2.61116
282.704	2.1229
282.921	2.14574
283.139	3.51638
283.356	4.15764
283.574	3.90123
283.791	1.96945
284.008	5.824
284.226	3.03709
284.443	3.4236
284.66	4.51077
284.877	3.50593
285.095	2.07214
285.312	1.63051
285.529	0.99931
285.746	0.89193
285.964	2.13667
286.181	1.49057
286.398	1.90613
286.615	2.66679
286.832	2.70645
287.05	0.6074
287.267	1.85724
287.484	1.80315
287.701	2.68122
287.918	2.57668
288.135	2.79534
288.352	1.28567
288.569	1.48016
288.786	2.61286
289.003	2.07148
289.22	3.04909
289.437	1.6996
289.654	2.97744
289.871	3.09548
290.088	3.02741
290.305	2.47497
290.522	1.81179
290.739	2.12276
290.956	3.22062
291.173	3.67295
291.39	3.52378
291.607	2.45847
291.824	1.64346
292.04	1.479
292.257	3.0818
292.474	3.37797
292.691	2.05698
292.908	0.98538
293.125	1.67565
293.341	1.25821
293.558	5.0702
293.775	2.03279
293.992	1.93353
294.208	0.81041
294.425	1.33788
294.642	1.93957
294.858	2.64292
295.075	0.71995
295.292	2.09084
295.508	2.46613
295.725	4.23308
295.942	1.64959
296.158	1.22227
296.375	2.06983
296.591	1.5082
296.808	1.78464
297.024	1.951
297.241	2.36942
297.458	2.39509
297.674	0.2098
297.891	1.9153
298.107	1.4682
298.323	1.15192
298.54	3.11167
298.756	1.24848
298.973	0.60179
299.189	3.09406
299.406	1.14424
299.622	2.88874
299.838	2.72143
300.055	2.70924
300.271	0.43315
300.487	1.04212
300.704	1.18012
300.92	0.60935
301.136	4.28615
301.353	2.77717
301.569	1.89467
301.785	2.21171
302.001	2.65729
302.218	2.26084
302.434	2.31363
302.65	0.70752
302.866	1.56599
303.083	4.07677
303.299	3.88442
303.515	2.00324
303.731	2.10765
303.947	0.61594
304.163	1.19437
304.379	2.12404
304.595	2.55398
304.812	1.26468
305.028	1.19285
305.244	1.80578
305.46	2.73244
305.676	2.77854
305.892	3.25903
306.108	2.29228
306.324	1.41284
306.54	3.72391
306.756	2.57437
306.972	2.47901
307.187	1.69533
307.403	3.42781
307.619	1.64239
307.835	3.23668
308.051	3.48855
308.267	0.98711
308.483	2.87186
308.699	2.60232
308.914	2.07554
309.13	1.8011
309.346	0.59358
309.562	0.91712
309.778	0.56721
309.993	2.44484
310.209	1.93708
310.425	0.96592
310.641	1.70139
310.856	0.98368
311.072	0.96761
311.288	1.83248
311.503	1.86468
311.719	0.32779
311.935	0.21119
312.15	2.18087
312.366	1.85215
312.581	2.2398
312.797	1.79283
313.013	2.55328
313.228	1.31772
313.444	1.90662
313.659	1.31871
313.875	2.37414
314.09	1.75323
314.306	3.08385
314.521	2.73996
314.737	2.51805
314.952	1.91837
315.168	1.7585
315.383	2.26032
315.599	1.85424
315.814	1.5106
316.029	2.64814
316.245	0.77014
316.46	0.47935
316.675	3.0977
316.891	3.61541
317.106	4.58355
317.321	2.4324
317.537	2.43219
317.752	2.64836
317.967	2.80517
318.183	1.15803
318.398	1.58956
318.613	2.72618
318.828	3.36265
319.043	2.63554
319.259	1.70658
319.474	2.16394
319.689	3.13916
319.904	0.63106
320.119	2.52143
320.334	2.26649
320.549	1.78983
320.765	2.90173
320.98	2.27743
321.195	2.77667
321.41	1.83513
321.625	2.6257
321.84	3.75792
322.055	3.78234
322.27	1.57892
322.485	1.15377
322.7	2.29492
322.915	2.90316
323.13	1.06755
323.345	3.352
323.56	2.88518
323.775	2.6208
323.989	2.38283
324.204	2.19713
324.419	2.97611
324.634	0.92537
324.849	1.83056
325.064	5.05331
325.279	2.78812
325.493	2.42033
325.708	2.86723
325.923	1.37715
326.138	1.32476
326.352	3.54896
326.567	2.93841
326.782	1.61821
326.997	1.35731
327.211	2.47961
327.426	2.39696
327.641	1.51612
327.855	0.56648
328.07	2.29158
328.285	3.52933
328.499	1.48003
328.714	2.25352
328.928	2.76498
329.143	1.93919
329.358	2.91633
329.572	3.00012
329.787	3.23714
330.001	4.40214
330.216	0.9202
330.43	3.44166
330.645	3.612
330.859	2.92647
331.074	1.53968
331.288	2.05853
331.503	3.10342
331.717	1.07426
331.931	2.19476
332.146	2.09049
332.36	3.52918
332.575	2.47323
332.789	2.37176
333.003	2.29268
333.218	2.36262
333.432	1.39433
333.646	2.68521
333.86	3.54935
334.075	3.51044
334.289	1.59677
334.503	1.19561
334.717	2.28209
334.932	2.44853
335.146	3.28178
335.36	1.74074
335.574	2.60867
335.788	2.38363
336.003	2.98455
336.217	2.41555
336.431	2.46447
336.645	1.37642
336.859	0.95254
337.073	1.8884
337.287	2.24354
337.501	1.04989
337.715	2.29992
337.929	2.94939
338.143	0.95367
338.357	1.88285
338.571	1.24708
338.785	2.44907
338.999	1.62129
339.213	1.48483
339.427	0.75209
339.641	3.19459
339.855	1.92536
340.069	1.47621
340.283	2.82571
340.497	3.84815
340.711	2.24441
340.924	1.74577
341.138	1.04711
341.352	0.90289
341.566	2.25248
341.78	0.47639
341.993	1.6171
342.207	1.01287
342.421	2.10262
342.635	1.86949
342.848	1.48617
343.062	0.183
343.276	1.28638
343.49	3.76974
343.703	1.38015
343.917	2.80238
344.131	2.68502
344.344	1.25559
344.558	1.52281
344.771	1.01311
344.985	3.51167
345.199	3.27521
345.412	2.2081
345.626	2.06747
345.839	0.65497
346.053	0.93606
346.266	1.00412
346.48	2.55213
346.693	2.18415
346.907	2.21065
347.12	1.07555
347.334	2.24593
347.547	2.22188
347.76	1.44717
347.974	2.90669
348.187	2.11372
348.401	1.55277
348.614	1.27043
348.827	1.50514
349.041	2.3105
349.254	0.56502
349.467	1.6482
349.681	0.73718
349.894	1.42622
350.107	2.9963
350.32	3.29064
350.534	0.58975
350.747	1.45911
350.96	1.12684
351.173	1.25659
351.386	1.53271
351.6	1.41385
351.813	1.28648
352.026	1.58505
352.239	0.58446
352.452	1.50871
352.665	2.52569
352.878	1.78691
353.092	3.4228
353.305	2.39317
353.518	1.96968
353.731	1.15998
353.944	2.89902
354.157	1.25132
354.37	0.96515
354.583	1.03927
354.796	0.33827
355.009	2.68373
355.222	1.96553
355.435	1.79598
355.647	2.53162
355.86	0.92118
356.073	1.65746
356.286	1.27823
356.499	2.24791
356.712	1.94863
356.925	2.19912
357.138	2.31086
357.35	0.91771
357.563	1.3652
357.776	1.73332
357.989	1.28276
358.201	1.96759
358.414	1.74307
358.627	2.58464
358.84	1.33344
359.052	0.69928
359.265	0.8496
359.478	2.43044
359.69	-0.39015
359.903	2.06757
360.116	2.18058
360.328	0.32413
360.541	2.2077
360.753	0.68917
360.966	1.07736
361.179	1.14279
361.391	1.06607
361.604	0.78806
361.816	1.16224
362.029	0.93107
362.241	0.77663
362.454	0.96692
362.666	0.75734
362.879	1.46844
363.091	1.15819
363.304	0.76924
363.516	1.39997
363.728	0.60534
363.941	1.7687
364.153	1.0117
364.366	-0.19943
364.578	0.63864
364.79	1.6661
365.003	1.25581
365.215	0.93754
365.427	1.67565
365.639	2.24912
365.852	1.5512
366.064	3.18102
366.276	1.07421
366.488	1.77
366.701	1.02691
366.913	1.46014
367.125	1.23971
367.337	0.81493
367.549	1.03918
367.762	1.5869
367.974	1.54099
368.186	0.7741
368.398	2.03403
368.61	1.89513
368.822	1.93379
369.034	1.38182
369.246	1.85544
369.458	3.52873
369.67	0.75676
369.882	2.80907
370.094	0.13901
370.306	2.86808
370.518	1.23254
370.73	0.79407
370.942	0.81861
371.154	1.25112
371.366	0.8579
371.578	1.53661
371.79	0.71471
372.002	2.2753
372.214	2.68623
372.425	1.44905
372.637	2.28782
372.849	1.54958
373.061	-0.02452
373.273	1.58528
373.484	1.69465
373.696	2.01042
373.908	-0.08752
374.12	2.30744
374.331	1.52666
374.543	0.8447
374.755	0.69151
374.967	1.56106
375.178	1.86239
375.39	1.15107
375.602	1.41403
375.813	0.38834
376.025	0.47029
376.236	1.37303
376.448	1.55509
376.66	0.90918
376.871	0.91429
377.083	2.2516
377.294	2.2542
377.506	0.99173
377.717	2.22795
377.929	1.50429
378.14	0.74039
378.352	1.60427
378.563	1.48746
378.775	2.16546
378.986	0.67773
379.197	1.23392
379.409	1.00562
379.62	1.87795
379.832	1.76643
380.043	1.0895
380.254	1.40245
380.466	0.57516
380.677	3.40195
380.888	2.73696
381.1	3.11031
381.311	2.97497
381.522	1.24876
381.733	3.47453
381.945	1.1201
382.156	1.51626
382.367	0.89565
382.578	3.36908
382.789	3.20813
383.001	1.02618
383.212	2.31655
383.423	2.37261
383.634	2.22009
383.845	1.73617
384.056	0.94838
384.267	1.34059
384.478	1.24908
384.69	0.5378
384.901	1.63046
385.112	1.57074
385.323	2.37227
385.534	1.70596
385.745	1.52269
385.956	1.66336
386.167	0.69737
386.378	1.73598
386.588	0.57645
386.799	0.84402
387.01	0.24618
387.221	1.94453
387.432	1.23565
387.643	2.69914
387.854	1.18115
388.065	1.03613
388.275	1.22303
388.486	1.02748
388.697	1.14801
388.908	1.14735
389.119	2.18824
389.329	2.45571
389.54	1.38421
389.751	1.64519
389.962	2.22101
390.172	1.58202
390.383	0.97573
390.594	0.95717
390.804	0.87094
391.015	0.90149
391.226	1.38726
391.436	1.58526
391.647	1.52126
391.858	1.78195
392.068	0.26784
392.279	0.51957
392.489	1.35227
392.7	2.19628
392.91	0.63961
393.121	0.8504
393.331	1.6215
393.542	2.10517
393.752	1.49551
393.963	1.54977
394.173	1.37289
394.384	1.74195
394.594	1.39409
394.804	0.56713
395.015	1.42109
395.225	1.68448
395.436	0.6732
395.646	1.72614
395.856	0.83704
396.067	0.56127
396.277	2.05277
396.487	1.69572
396.697	1.50157
396.908	1.75935
397.118	1.82127
397.328	1.60903
397.538	2.10831
397.749	0.952
397.959	1.899
398.169	2.00777
398.379	0.61535
398.589	1.92511
398.8	1.39724
399.01	1.35367
399.22	1.26108
399.43	3.07437
399.64	1.26673
399.85	1.935
400.06	1.42
400.27	0.99301
400.48	1.47867
400.69	2.59048
400.9	1.1204
401.11	0.99034
401.32	2.00076
401.53	1.33915
401.74	2.68052
401.95	2.10493
402.16	0.85356
402.37	1.76081
402.58	1.15647
402.79	2.05476
403	2.24996
403.209	1.18071
403.419	2.17039
403.629	1.12048
403.839	2.11883
404.049	2.10265
404.258	1.12187
404.468	1.04176
404.678	1.80837
404.888	2.12697
405.097	0.96381
405.307	1.49902
405.517	1.8784
405.727	1.71096
405.936	1.3673
406.146	1.73688
406.356	2.42493
406.565	1.56519
406.775	1.22195
406.984	1.31533
407.194	2.64226
407.404	1.66102
407.613	1.98427
407.823	2.15436
408.032	2.26757
408.242	2.34352
408.451	1.3548
408.661	1.6458
408.87	2.79569
409.08	1.27707
409.289	1.94767
409.499	1.82668
409.708	1.79569
409.918	0.57066
410.127	1.86989
410.336	2.77915
410.546	2.14839
410.755	1.42902
410.964	1.48722
411.174	1.25461
411.383	2.05583
411.592	2.05248
411.802	1.13029
412.011	2.38078
412.22	1.69979
412.429	2.8929
412.639	2.71889
412.848	2.52015
413.057	2.63751
413.266	2.66231
413.475	1.86885
413.685	2.30663
413.894	2.48644
414.103	2.70148
414.312	2.52773
414.521	1.82895
414.73	1.92279
414.939	3.29826
415.148	2.31693
415.357	2.11012
415.566	1.61185
415.776	1.73498
415.985	1.5755
416.194	2.43275
416.403	2.98359
416.611	1.13361
416.82	1.57028
417.029	1.89005
417.238	1.47743
417.447	1.32913
417.656	1.547
417.865	1.36701
418.074	1.51515
418.283	1.7252
418.492	2.20864
418.7	2.09626
418.909	2.6644
419.118	1.99211
419.327	2.12826
419.536	1.92774
419.744	1.57461
419.953	2.59834
420.162	2.61117
420.371	1.78225
420.579	1.68508
420.788	2.60713
420.997	2.55677
421.205	2.5993
421.414	2.34876
421.623	2.37319
421.831	2.05147
422.04	2.6973
422.249	1.97599
422.457	2.52864
422.666	1.90826
422.874	2.79979
423.083	2.85157
423.291	2.79976
423.5	2.4185
423.708	2.64887
423.917	2.92835
424.125	2.55729
424.334	2.26171
424.542	3.86547
424.751	3.27336
424.959	3.0254
425.167	3.22068
425.376	3.14383
425.584	2.48722
425.793	2.66136
426.001	1.98363
426.209	2.68108
426.418	1.90336
426.626	1.99534
426.834	1.77988
427.042	2.138
