Data from WindowProjectSample_Transmission__5__00005__0001755727182911948.txt Node

Date: Mon May 05 16:39:46 EDT 2025
User: jessi
Spectrometer: SR400872
Trigger mode: 0
Integration Time (sec): 5.000010E-1
Scans to average: 20
Electric dark correction enabled: true
Nonlinearity correction enabled: true
Boxcar width: 0
XAxis mode: Wavelengths
Number of Pixels in Spectrum: 3648
>>>>>Begin Spectral Data<<<<<
184.909	19135.18302
185.132	-4578.37069
185.355	-2869.20374
185.578	-16418.28259
185.801	1380.13397
186.024	9943.1524
186.247	-1638.89284
186.47	1090.61634
186.693	296.3026
186.916	351.8571
187.139	-3395.50987
187.362	3002.02966
187.585	3945.4866
187.808	3203.94691
188.031	34.8793
188.254	-53026.65091
188.476	-1611.10657
188.699	5644.73629
188.922	537.27773
189.145	-14602.63681
189.368	-700.58242
189.591	-1190.25119
189.813	2925.99452
190.036	-44487.30696
190.259	-832.89201
190.482	-4498.39798
190.705	6563.02724
190.927	-2214.02968
191.15	12498.3239
191.373	3188.45437
191.595	-8075.95825
191.818	-3811.66247
192.041	-4901.25635
192.263	-3127.63287
192.486	-655.1815
192.709	-3732.6849
192.931	7344.60111
193.154	-26438.18855
193.377	-2634.76878
193.599	-2232.15634
193.822	-8327.82706
194.044	-1812.18332
194.267	1043.10424
194.489	281.17371
194.712	-39176.0243
194.934	-28891.35207
195.157	1089.4771
195.379	1462.81064
195.602	-6413.07655
195.824	-1228.87047
196.047	-8604.71499
196.269	2568.19098
196.492	-6073.09825
196.714	26118.11528
196.936	-7928.15892
197.159	-1077.68339
197.381	1040.62073
197.604	480.45589
197.826	10860.81661
198.048	-9719.64653
198.271	-2612.39532
198.493	6879.86783
198.715	2146.06784
198.938	-489.37873
199.16	6641.23215
199.382	-95341.89407
199.604	2596.50404
199.827	-1024.36663
200.049	-2638.22474
200.271	12344.39311
200.493	1107.67176
200.715	-36478.69802
200.938	-5790.00306
201.16	-3955.85422
201.382	18681.51755
201.604	2160.98713
201.826	2040.49495
202.048	-1819.78038
202.27	-1803.57244
202.492	-33415.05795
202.715	2828.38962
202.937	-4315.87687
203.159	-5855.18851
203.381	1399.99393
203.603	6780.60014
203.825	5803.69061
204.047	2004.91876
204.269	-2511.55869
204.491	1844.10991
204.713	5702.20989
204.935	-456971.28444
205.156	1094.1891
205.378	-2552.50106
205.6	1444.03157
205.822	141353.83137
206.044	-988.39941
206.266	1520.29025
206.488	3853.32573
206.71	-4882.76252
206.932	1023.00228
207.153	11588.87446
207.375	-6800.32952
207.597	-35512.2217
207.819	-2595.84974
208.041	2277.57304
208.262	438.63141
208.484	681.43355
208.706	-767.39402
208.927	-704.25712
209.149	517.92394
209.371	-2689.72553
209.593	-272.78805
209.814	-708.23221
210.036	548.26829
210.258	-589.09251
210.479	1857.07211
210.701	1587.63517
210.922	2936.26706
211.144	-3351.66332
211.366	1920.74097
211.587	7566.31569
211.809	-7340.22262
212.03	2171.06929
212.252	386.631
212.473	2000.82409
212.695	-5937.04263
212.916	2671.03968
213.138	-730.57976
213.359	3328.18231
213.581	4602.15685
213.802	-834.25584
214.024	1018.73715
214.245	1915.92329
214.466	3259.0013
214.688	-2823.69435
214.909	-1085.90394
215.131	-1618.89756
215.352	-2860.73767
215.573	13603.3867
215.795	4946.67151
216.016	5305.37876
216.237	861.79398
216.459	3258.16685
216.68	1538.02074
216.901	4669.28008
217.122	-3001.38862
217.344	-10649.86984
217.565	3117.80277
217.786	8150.51244
218.007	14966.00455
218.228	-661.36672
218.45	5311.14944
218.671	669.72457
218.892	36235.25656
219.113	1464.08785
219.334	-233.29572
219.555	9380.26457
219.776	2917.38634
219.997	20903.39018
220.219	2605.36588
220.44	-10017.60878
220.661	473.3125
220.882	1424.14648
221.103	-970.4201
221.324	2147.18337
221.545	2143.95675
221.766	-8155.45366
221.987	859.2686
222.208	1565.26842
222.429	4040.42603
222.65	262.58382
222.87	16697.09023
223.091	643.1065
223.312	570.76136
223.533	1218.51562
223.754	1345.38421
223.975	1244.77129
224.196	1793.01545
224.417	1236.21376
224.637	491.1505
224.858	80.01665
225.079	1003.57738
225.3	580.46241
225.521	3636.40243
225.741	437.81647
225.962	442.63821
226.183	131.05737
226.404	610.40194
226.624	405.04798
226.845	608.77675
227.066	375.45067
227.286	237.82053
227.507	116.46113
227.728	106.22172
227.948	217.08773
228.169	61.80071
228.389	81.89637
228.61	45.37046
228.831	57.61037
229.051	0.08577
229.272	35.96183
229.492	53.35973
229.713	13.89125
229.933	32.7805
230.154	30.25336
230.374	49.19206
230.595	33.90717
230.815	21.34389
231.036	36.80649
231.256	-9.94747
231.477	64.62298
231.697	33.34213
231.917	38.15079
232.138	52.11843
232.358	95.01321
232.579	93.98604
232.799	20.8395
233.019	93.08334
233.24	102.73041
233.46	33.74433
233.68	53.87285
233.901	40.46291
234.121	26.69089
234.341	15.97088
234.561	-5.16288
234.782	17.65719
235.002	65.62987
235.222	-2.54669
235.442	59.45502
235.662	28.86319
235.883	58.96683
236.103	47.72265
236.323	34.47649
236.543	26.95687
236.763	35.39947
236.983	40.22006
237.203	36.5136
237.423	54.23964
237.643	79.59002
237.864	68.10411
238.084	17.75793
238.304	23.40367
238.524	43.76232
238.744	36.88339
238.964	69.36263
239.184	55.66884
239.404	59.11496
239.624	31.69799
239.843	56.39192
240.063	33.82096
240.283	19.90754
240.503	22.58019
240.723	23.80195
240.943	13.53503
241.163	19.03057
241.383	13.35597
241.603	6.87069
241.822	8.44378
242.042	6.07458
242.262	7.74583
242.482	8.43161
242.702	10.02873
242.921	2.57769
243.141	6.04246
243.361	5.79842
243.581	9.25186
243.8	6.50824
244.02	5.11786
244.24	8.55021
244.459	8.41955
244.679	15.92477
244.899	10.59098
245.118	11.73412
245.338	11.09533
245.558	13.51613
245.777	7.99016
245.997	9.84119
246.216	9.59096
246.436	5.78811
246.655	4.39379
246.875	2.79186
247.094	5.78834
247.314	2.17183
247.533	3.22192
247.753	4.20021
247.972	3.08512
248.192	0.86226
248.411	1.66263
248.631	3.20807
248.85	4.47602
249.07	3.55792
249.289	5.27485
249.508	5.08669
249.728	6.94808
249.947	6.36411
250.166	8.2563
250.386	4.50995
250.605	6.07376
250.824	9.9598
251.044	7.04433
251.263	26.3731
251.482	13.71508
251.701	11.1876
251.921	0.02831
252.14	2.87998
252.359	3.48894
252.578	9.19992
252.798	3.35426
253.017	7.94396
253.236	3.81846
253.455	5.33034
253.674	9.236
253.893	4.19844
254.112	6.66914
254.331	10.38489
254.551	7.44687
254.77	3.52925
254.989	12.68839
255.208	9.56228
255.427	13.86044
255.646	10.91388
255.865	20.70394
256.084	7.93465
256.303	9.45165
256.522	12.90862
256.741	2.89219
256.96	2.62979
257.179	7.57529
257.397	10.09241
257.616	5.67861
257.835	5.19716
258.054	14.09922
258.273	9.3444
258.492	10.11098
258.711	6.18378
258.93	2.87154
259.148	4.48703
259.367	4.36506
259.586	5.05118
259.805	2.26694
260.023	4.79003
260.242	3.59591
260.461	2.53328
260.68	1.28506
260.898	4.15355
261.117	1.22667
261.336	0.7293
261.554	3.18793
261.773	2.9505
261.992	0.78363
262.21	3.11424
262.429	3.121
262.648	6.74954
262.866	7.54467
263.085	5.24731
263.303	4.32299
263.522	7.92983
263.74	8.44143
263.959	14.47403
264.178	6.29651
264.396	5.71007
264.615	4.19927
264.833	9.89609
265.051	8.05792
265.27	9.98211
265.488	10.15727
265.707	5.49558
265.925	10.09977
266.144	4.4774
266.362	5.52564
266.58	5.05103
266.799	4.58379
267.017	5.62477
267.235	4.83649
267.454	3.12863
267.672	1.65673
267.89	3.77402
268.109	3.86109
268.327	4.14744
268.545	0.83879
268.763	3.98892
268.982	1.2537
269.2	3.66631
269.418	2.94123
269.636	2.01262
269.854	4.26376
270.073	2.88385
270.291	1.65573
270.509	1.74806
270.727	3.87589
270.945	6.84337
271.163	6.50224
271.381	1.28363
271.599	2.98393
271.817	4.8695
272.036	1.60876
272.254	2.96412
272.472	2.22386
272.69	2.31517
272.908	2.2121
273.126	4.23699
273.344	4.90128
273.562	1.68899
273.779	2.32324
273.997	3.4459
274.215	3.74211
274.433	2.65919
274.651	4.16746
274.869	4.3396
275.087	2.56164
275.305	3.82206
275.523	2.24726
275.74	2.64935
275.958	4.94396
276.176	7.66396
276.394	2.37324
276.612	2.82781
276.829	2.9466
277.047	2.41439
277.265	2.66965
277.483	3.44124
277.7	3.89516
277.918	3.08025
278.136	5.90467
278.353	2.53549
278.571	1.49978
278.789	3.85958
279.006	0.79404
279.224	2.71083
279.442	4.83343
279.659	3.28037
279.877	2.15136
280.094	5.50907
280.312	1.03397
280.529	3.23308
280.747	0.92455
280.964	2.10616
281.182	5.46049
281.399	2.51669
281.617	3.41789
281.834	2.18296
282.052	1.73629
282.269	2.85883
282.487	2.34821
282.704	2.10139
282.921	2.09952
283.139	3.05928
283.356	3.7139
283.574	3.61733
283.791	1.71518
284.008	5.22755
284.226	2.74784
284.443	2.93392
284.66	4.20916
284.877	3.15053
285.095	1.81006
285.312	1.50756
285.529	0.90075
285.746	0.7343
285.964	1.93637
286.181	1.3479
286.398	1.69332
286.615	2.4929
286.832	2.34842
287.05	0.50593
287.267	1.79983
287.484	1.69494
287.701	2.39668
287.918	2.44492
288.135	2.44101
288.352	1.17201
288.569	1.31885
288.786	2.30475
289.003	1.88197
289.22	2.80946
289.437	1.45355
289.654	2.69385
289.871	2.7927
290.088	2.81372
290.305	2.09568
290.522	1.6278
290.739	1.93264
290.956	2.87038
291.173	3.35759
291.39	3.18952
291.607	2.25826
291.824	1.59374
292.04	1.30837
292.257	2.54537
292.474	2.87832
292.691	1.79508
292.908	0.76573
293.125	1.6206
293.341	0.98727
293.558	4.55498
293.775	1.678
293.992	2.04885
294.208	0.77935
294.425	1.13118
294.642	1.74816
294.858	2.55775
295.075	0.61489
295.292	1.719
295.508	2.09286
295.725	3.82819
295.942	1.61915
296.158	1.31418
296.375	2.08035
296.591	1.55701
296.808	1.73843
297.024	1.99328
297.241	2.32248
297.458	2.46252
297.674	0.42693
297.891	1.94282
298.107	1.77368
298.323	1.27138
298.54	3.32449
298.756	1.65966
298.973	0.94634
299.189	3.33829
299.406	1.57537
299.622	3.01652
299.838	3.04008
300.055	2.92354
300.271	1.13729
300.487	1.47041
300.704	1.76935
300.92	1.29408
301.136	4.57594
301.353	3.05076
301.569	2.43755
301.785	2.66793
302.001	3.10141
302.218	2.63223
302.434	2.9615
302.65	1.35627
302.866	2.18373
303.083	4.53352
303.299	4.33981
303.515	2.74354
303.731	2.98564
303.947	1.40596
304.163	2.04844
304.379	2.83565
304.595	3.06083
304.812	2.03213
305.028	2.10665
305.244	2.50901
305.46	3.2999
305.676	3.40656
305.892	3.88922
306.108	3.22931
306.324	2.40043
306.54	4.37558
306.756	3.33897
306.972	3.12388
307.187	2.71017
307.403	4.0567
307.619	2.45837
307.835	3.87425
308.051	4.18671
308.267	2.02385
308.483	3.86282
308.699	3.28112
308.914	2.87667
309.13	2.82281
309.346	1.82828
309.562	2.12846
309.778	1.80349
309.993	3.35485
310.209	3.05403
310.425	2.02871
310.641	2.90127
310.856	2.22376
311.072	2.10288
311.288	2.84566
311.503	3.21504
311.719	1.58499
311.935	1.52498
312.15	3.44214
312.366	3.15681
312.581	3.43287
312.797	2.95277
313.013	3.81033
313.228	2.44609
313.444	2.85564
313.659	2.44146
313.875	3.47158
314.09	2.90521
314.306	4.36873
314.521	3.74327
314.737	3.68447
314.952	2.97393
315.168	2.94998
315.383	3.40821
315.599	2.71781
315.814	2.78917
316.029	3.62191
316.245	2.11938
316.46	1.64421
316.675	4.05689
316.891	4.52304
317.106	5.34884
317.321	3.22945
317.537	3.59571
317.752	3.84002
317.967	3.89694
318.183	2.35743
318.398	2.81775
318.613	3.95016
318.828	4.34045
319.043	3.93179
319.259	2.9558
319.474	3.32852
319.689	4.19799
319.904	1.8544
320.119	3.80384
320.334	3.38986
320.549	2.91592
320.765	4.15463
320.98	3.35741
321.195	3.68359
321.41	3.20588
321.625	3.87082
321.84	4.71907
322.055	4.70567
322.27	2.70003
322.485	2.23703
322.7	3.66133
322.915	3.68373
323.13	2.66047
323.345	4.56812
323.56	4.0868
323.775	3.81465
323.989	3.59989
324.204	3.55175
324.419	4.25623
324.634	2.27238
324.849	3.18326
325.064	6.23642
325.279	4.1147
325.493	3.66403
325.708	3.98191
325.923	2.66121
326.138	2.91915
326.352	4.67604
326.567	4.11773
326.782	2.88552
326.997	2.8852
327.211	3.8946
327.426	3.56474
327.641	2.94151
327.855	2.03489
328.07	3.74004
328.285	4.93535
328.499	2.84752
328.714	3.5912
328.928	3.79816
329.143	3.20879
329.358	4.16977
329.572	4.23935
329.787	4.57653
330.001	5.43171
330.216	2.38812
330.43	5.1277
330.645	4.72652
330.859	4.16083
331.074	2.67506
331.288	3.44441
331.503	4.62713
331.717	2.50072
331.931	3.54142
332.146	3.62653
332.36	5.08124
332.575	3.67709
332.789	3.61635
333.003	3.64933
333.218	3.91293
333.432	2.95969
333.646	4.14742
333.86	4.99663
334.075	4.81729
334.289	3.03776
334.503	2.51787
334.717	3.85162
334.932	3.80045
335.146	4.42345
335.36	2.95817
335.574	4.10093
335.788	3.81784
336.003	4.22001
336.217	4.07741
336.431	3.81997
336.645	3.02603
336.859	2.51116
337.073	3.23676
337.287	3.6818
337.501	2.50996
337.715	3.7975
337.929	4.11168
338.143	2.54234
338.357	3.41944
338.571	3.00836
338.785	4.04202
338.999	3.1142
339.213	3.08496
339.427	2.40072
339.641	4.66428
339.855	3.12554
340.069	2.89313
340.283	4.2014
340.497	4.9543
340.711	3.91567
340.924	3.56522
341.138	2.71846
341.352	2.50055
341.566	3.62371
341.78	2.25122
341.993	3.10294
342.207	2.88102
342.421	3.62857
342.635	3.45753
342.848	3.13758
343.062	1.78992
343.276	2.96522
343.49	5.02019
343.703	2.95124
343.917	4.27442
344.131	4.35784
344.344	2.94889
344.558	3.21393
344.771	2.56713
344.985	4.7589
345.199	4.76077
345.412	3.80032
345.626	3.8703
345.839	2.31535
346.053	2.65783
346.266	2.69169
346.48	3.95302
346.693	3.83263
346.907	3.67856
347.12	2.7481
347.334	3.66794
347.547	3.81313
347.76	3.43373
347.974	4.43935
348.187	3.71514
348.401	3.22407
348.614	2.88544
348.827	3.2642
349.041	3.81726
349.254	2.31468
349.467	3.19611
349.681	2.63653
349.894	2.88344
350.107	4.3475
350.32	4.86033
350.534	2.3941
350.747	3.10488
350.96	2.76962
351.173	2.91747
351.386	3.19824
351.6	3.07027
351.813	3.04297
352.026	3.33799
352.239	2.544
352.452	3.01648
352.665	4.30167
352.878	3.39446
353.092	4.91148
353.305	4.15687
353.518	3.56559
353.731	2.76255
353.944	4.2304
354.157	3.10444
354.37	2.89888
354.583	2.64587
354.796	2.45762
355.009	4.11495
355.222	3.65651
355.435	3.48361
355.647	4.07718
355.86	2.92084
356.073	3.63195
356.286	3.14524
356.499	4.06516
356.712	3.73858
356.925	3.98448
357.138	4.06131
357.35	2.87624
357.563	3.21182
357.776	3.49771
357.989	3.40612
358.201	3.91701
358.414	3.74128
358.627	4.566
358.84	3.45266
359.052	2.64534
359.265	2.9633
359.478	4.25445
359.69	1.83668
359.903	4.02982
360.116	4.25705
360.328	2.41276
360.541	4.10787
360.753	2.97537
360.966	3.27891
361.179	3.41189
361.391	3.28133
361.604	3.16093
361.816	3.36081
362.029	3.28732
362.241	3.00302
362.454	3.43025
362.666	2.9519
362.879	3.94332
363.091	3.31084
363.304	3.17702
363.516	3.40854
363.728	2.91969
363.941	3.84706
364.153	3.5112
364.366	2.18695
364.578	2.80628
364.79	3.67493
365.003	3.6214
365.215	3.10132
365.427	3.81949
365.639	4.18933
365.852	3.57562
366.064	5.01109
366.276	3.4443
366.488	3.70824
366.701	3.2744
366.913	3.34659
367.125	3.33801
367.337	2.96632
367.549	3.19074
367.762	3.55647
367.974	3.40906
368.186	3.12763
368.398	4.08404
368.61	3.91797
368.822	4.04595
369.034	3.2881
369.246	4.08268
369.458	5.64336
369.67	2.9292
369.882	4.75073
370.094	2.24229
370.306	4.73372
370.518	3.28884
370.73	3.14064
370.942	3.18936
371.154	3.46572
371.366	3.35111
371.578	3.90291
371.79	3.22604
372.002	4.29145
372.214	5.0302
372.425	3.53625
372.637	4.60873
372.849	3.88121
373.061	2.35733
373.273	3.96691
373.484	3.83195
373.696	4.25115
373.908	2.37497
374.12	4.35328
374.331	3.85012
374.543	3.1389
374.755	3.11615
374.967	3.76478
375.178	4.19866
375.39	3.3703
375.602	3.77464
375.813	2.66754
376.025	3.12103
376.236	3.76591
376.448	3.96518
376.66	3.50423
376.871	3.53536
377.083	4.56981
377.294	4.88927
377.506	3.52645
377.717	4.69407
377.929	4.03127
378.14	3.51809
378.352	4.01963
378.563	4.07981
378.775	4.75229
378.986	3.21378
379.197	4.0172
379.409	3.33277
379.62	4.20433
379.832	4.15252
380.043	3.68121
380.254	3.91436
380.466	3.21345
380.677	5.7103
380.888	5.11337
381.1	5.42941
381.311	5.59365
381.522	4.00589
381.733	5.80462
381.945	3.89448
382.156	3.768
382.367	3.58913
382.578	5.80416
382.789	5.68214
383.001	3.57576
383.212	5.04726
383.423	5.0472
383.634	4.68486
383.845	4.48543
384.056	3.88056
384.267	4.09492
384.478	4.10441
384.69	3.38294
384.901	4.36162
385.112	4.30633
385.323	5.25634
385.534	4.39384
385.745	4.26118
385.956	4.25439
386.167	3.67793
386.378	4.4299
386.588	3.75962
386.799	3.66216
387.01	3.29241
387.221	4.73576
387.432	4.19573
387.643	5.21238
387.854	3.97232
388.065	4.02481
388.275	4.11347
388.486	3.87309
388.697	4.13928
388.908	3.90464
389.119	4.9419
389.329	5.14256
389.54	4.2737
389.751	4.50328
389.962	5.17232
390.172	4.37732
390.383	4.14128
390.594	3.89016
390.804	3.9454
391.015	4.01442
391.226	4.48987
391.436	4.76667
391.647	4.58465
391.858	4.80769
392.068	3.48499
392.279	3.83997
392.489	4.63009
392.7	5.13579
392.91	4.08543
393.121	3.96265
393.331	4.733
393.542	5.12975
393.752	4.68141
393.963	4.76343
394.173	4.62298
394.384	4.84448
394.594	4.59551
394.804	3.91869
395.015	4.6558
395.225	4.8551
395.436	4.03262
395.646	4.79509
395.856	4.2939
396.067	3.71981
396.277	5.0659
396.487	4.74089
396.697	4.76223
396.908	4.88866
397.118	4.89965
397.328	4.61639
397.538	5.16508
397.749	4.2084
397.959	5.0378
398.169	5.03844
398.379	3.94292
398.589	5.07042
398.8	4.74811
399.01	4.78334
399.22	4.54143
399.43	5.96212
399.64	4.68347
399.85	5.17759
400.06	4.81831
400.27	4.27248
400.48	4.64404
400.69	5.52657
400.9	4.42538
401.11	4.22303
401.32	5.15503
401.53	4.51788
401.74	5.67388
401.95	5.04903
402.16	4.42745
402.37	4.99865
402.58	4.5346
402.79	5.24827
403	5.56271
403.209	4.61254
403.419	5.62587
403.629	4.56822
403.839	5.63755
404.049	5.46072
404.258	4.80533
404.468	4.63885
404.678	5.47732
404.888	5.76218
405.097	4.82129
405.307	5.01833
405.517	5.52043
405.727	5.39169
405.936	5.01668
406.146	5.33847
406.356	5.98649
406.565	5.14138
406.775	4.9531
406.984	4.85712
407.194	6.24177
407.404	5.16171
407.613	5.68991
407.823	5.67261
408.032	5.85642
408.242	5.69311
408.451	4.95796
408.661	5.15263
408.87	6.3757
409.08	4.87634
409.289	5.57005
409.499	5.55692
409.708	5.51715
409.918	4.38115
410.127	5.66659
410.336	6.47192
410.546	5.95583
410.755	5.33733
410.964	5.47747
411.174	5.1013
411.383	5.87269
411.592	5.86793
411.802	5.13424
412.011	6.06218
412.22	5.45682
412.429	6.67724
412.639	6.48535
412.848	6.28515
413.057	6.52513
413.266	6.40572
413.475	5.86748
413.685	6.07847
413.894	6.37761
414.103	6.44584
414.312	6.32887
414.521	5.6616
414.73	5.97836
414.939	7.13864
415.148	6.23865
415.357	6.1572
415.566	5.91345
415.776	5.90871
415.985	5.89559
416.194	6.60414
416.403	7.27325
416.611	5.59035
416.82	6.0995
417.029	6.41461
417.238	6.08845
417.447	5.99171
417.656	6.34558
417.865	6.1355
418.074	6.52239
418.283	6.57848
418.492	7.16675
418.7	7.00429
418.909	7.89347
419.118	7.0777
419.327	7.40561
419.536	7.33454
419.744	7.35612
419.953	8.40314
420.162	8.66115
420.371	8.09979
420.579	8.51526
420.788	9.30691
420.997	9.3938
421.205	9.696
421.414	9.49258
421.623	9.60472
421.831	9.31681
422.04	9.74434
422.249	9.01138
422.457	9.42874
422.666	8.62672
422.874	9.4538
423.083	9.53576
423.291	9.48912
423.5	9.40306
423.708	9.72537
423.917	10.15454
424.125	9.7716
424.334	9.75215
424.542	11.12236
424.751	10.71019
424.959	10.40279
425.167	10.64243
425.376	10.36673
425.584	9.31984
425.793	9.34438
426.001	8.57537
426.209	8.64864
426.418	7.79883
426.626	7.52699
426.834	7.42604
427.042	7.74522
