Data from WindowProjectSample_Transmission__70__00070.txt Node

Date: Mon May 05 18:39:29 EDT 2025
User: jessi
Spectrometer: SR400872
Trigger mode: 0
Integration Time (sec): 5.000010E-1
Scans to average: 20
Electric dark correction enabled: true
Nonlinearity correction enabled: true
Boxcar width: 0
XAxis mode: Wavelengths
Number of Pixels in Spectrum: 3648
>>>>>Begin Spectral Data<<<<<
184.909	21430.09912
185.132	-5207.55819
185.355	-3132.28862
185.578	-18390.84173
185.801	1986.55227
186.024	10709.55379
186.247	-2078.24806
186.47	1287.34741
186.693	377.42817
186.916	304.93857
187.139	-3739.52852
187.362	3669.80388
187.585	4015.52925
187.808	3567.36731
188.031	49.62274
188.254	-56092.45695
188.476	-675.6716
188.699	6587.18737
188.922	707.95649
189.145	-15677.74727
189.368	-792.47163
189.591	-1549.25683
189.813	3232.86224
190.036	-52408.63033
190.259	-888.2269
190.482	-4624.83335
190.705	7158.47359
190.927	-2580.82004
191.15	13146.68205
191.373	3681.82593
191.595	-9532.9066
191.818	-4316.06405
192.041	-7286.28818
192.263	-3568.92454
192.486	-999.86909
192.709	-4014.35332
192.931	8065.10536
193.154	-28236.07965
193.377	-2984.00953
193.599	-2670.63189
193.822	-9396.58862
194.044	-2053.24878
194.267	1263.15018
194.489	180.05317
194.712	-44762.02646
194.934	-32720.41963
195.157	1314.74666
195.379	1423.47589
195.602	-7084.43137
195.824	-1423.57013
196.047	-9076.67139
196.269	2746.64042
196.492	-6485.64368
196.714	29184.99714
196.936	-8908.76425
197.159	-1255.7824
197.381	1302.16684
197.604	600.74287
197.826	11960.24263
198.048	-11339.54086
198.271	-3004.01572
198.493	7711.68676
198.715	2373.65983
198.938	-444.13384
199.16	7491.09291
199.382	-101128.9875
199.604	2816.17022
199.827	-1085.3031
200.049	-3073.70675
200.271	14670.7576
200.493	1299.38112
200.715	-40761.58932
200.938	-6364.17293
201.16	-4300.11003
201.382	20571.39525
201.604	2378.71448
201.826	2364.69007
202.048	-1856.40798
202.27	-1957.58007
202.492	-37245.56467
202.715	3029.29369
202.937	-4724.56308
203.159	-6464.35398
203.381	1570.40126
203.603	6885.66421
203.825	6841.49373
204.047	2296.52248
204.269	-2920.37529
204.491	2196.71736
204.713	5904.64285
204.935	-471971.71603
205.156	1207.8855
205.378	-2980.76468
205.6	1603.12341
205.822	160291.25752
206.044	-1091.64858
206.266	1595.12234
206.488	4513.66296
206.71	-5216.27063
206.932	1192.51705
207.153	12172.90306
207.375	-7045.55881
207.597	-38421.57347
207.819	-2844.66088
208.041	2460.08127
208.262	505.81805
208.484	683.91932
208.706	-828.43896
208.927	-864.13387
209.149	539.19759
209.371	-3029.42054
209.593	-346.08065
209.814	-864.70543
210.036	653.3788
210.258	-628.40044
210.479	1766.98546
210.701	1700.3949
210.922	3568.67407
211.144	-3890.36696
211.366	2146.40173
211.587	7793.44581
211.809	-8521.95809
212.03	2306.98025
212.252	487.15845
212.473	2138.49026
212.695	-6427.7848
212.916	2966.96471
213.138	-651.51452
213.359	3697.78287
213.581	5360.90477
213.802	-823.86737
214.024	1134.98492
214.245	2156.9774
214.466	3280.25638
214.688	-3207.24064
214.909	-1315.43055
215.131	-1793.95448
215.352	-3033.16151
215.573	15122.83924
215.795	5342.50197
216.016	5582.33411
216.237	882.86678
216.459	3659.32222
216.68	1912.65925
216.901	5235.01595
217.122	-3443.93189
217.344	-12084.31312
217.565	3480.25203
217.786	8821.34346
218.007	17067.01491
218.228	-725.86965
218.45	6014.09739
218.671	883.28407
218.892	37685.53003
219.113	1562.64829
219.334	-312.35426
219.555	9575.49523
219.776	3213.76011
219.997	21899.38046
220.219	2870.14397
220.44	-10909.2486
220.661	450.68194
220.882	1499.26245
221.103	-1059.47537
221.324	2414.76199
221.545	2308.48478
221.766	-9628.25322
221.987	1011.40806
222.208	1750.84166
222.429	4324.66112
222.65	413.69019
222.87	18915.48937
223.091	733.50235
223.312	572.74147
223.533	1344.37858
223.754	1488.9587
223.975	1351.62189
224.196	2167.63834
224.417	1360.45202
224.637	614.25664
224.858	130.39732
225.079	1075.24572
225.3	703.34545
225.521	3831.17495
225.741	492.03943
225.962	508.06659
226.183	162.1604
226.404	684.88816
226.624	434.17928
226.845	694.66901
227.066	427.20914
227.286	259.28613
227.507	128.76154
227.728	123.24739
227.948	244.73968
228.169	70.78689
228.389	85.61973
228.61	49.65577
228.831	64.84198
229.051	4.55117
229.272	39.18343
229.492	56.52048
229.713	13.76273
229.933	37.76228
230.154	32.49306
230.374	55.87948
230.595	39.22462
230.815	24.2717
231.036	41.8641
231.256	-8.98687
231.477	71.78303
231.697	39.08623
231.917	40.91474
232.138	58.75222
232.358	108.79596
232.579	102.14779
232.799	20.06475
233.019	105.44832
233.24	117.63723
233.46	36.91039
233.68	66.25252
233.901	46.99268
234.121	27.03131
234.341	15.29828
234.561	-4.36386
234.782	25.32954
235.002	67.97337
235.222	-5.43087
235.442	66.73053
235.662	33.60963
235.883	63.79299
236.103	52.22123
236.323	35.66655
236.543	30.59971
236.763	38.88133
236.983	45.38071
237.203	41.02319
237.423	63.12444
237.643	90.98834
237.864	79.59571
238.084	18.05897
238.304	27.4835
238.524	42.97243
238.744	39.82709
238.964	75.68332
239.184	63.07585
239.404	66.14159
239.624	34.9845
239.843	62.82662
240.063	38.57012
240.283	23.50261
240.503	25.79524
240.723	25.14926
240.943	15.42822
241.163	20.39899
241.383	15.91133
241.603	7.38017
241.822	10.66559
242.042	6.59285
242.262	8.05775
242.482	9.47403
242.702	10.86745
242.921	2.82788
243.141	6.79049
243.361	6.34322
243.581	9.67487
243.8	7.40301
244.02	5.76703
244.24	9.86444
244.459	9.34683
244.679	18.01855
244.899	11.89693
245.118	13.6872
245.338	12.79819
245.558	14.20149
245.777	8.92077
245.997	10.59485
246.216	10.90715
246.436	6.537
246.655	4.92296
246.875	3.596
247.094	6.20437
247.314	1.94005
247.533	3.87117
247.753	4.36882
247.972	3.58149
248.192	1.21669
248.411	1.93774
248.631	3.76585
248.85	4.77222
249.07	4.07864
249.289	5.93466
249.508	5.09468
249.728	7.01591
249.947	7.12201
250.166	8.76406
250.386	4.59363
250.605	7.12453
250.824	11.0157
251.044	8.08279
251.263	29.32232
251.482	15.19614
251.701	12.05918
251.921	0.05959
252.14	3.46477
252.359	3.98246
252.578	10.37759
252.798	3.23429
253.017	9.46057
253.236	4.27496
253.455	5.59546
253.674	10.8939
253.893	5.41625
254.112	7.74566
254.331	10.80356
254.551	9.294
254.77	3.66263
254.989	13.75962
255.208	10.01276
255.427	14.96717
255.646	12.28137
255.865	22.50943
256.084	8.72568
256.303	10.4454
256.522	14.61592
256.741	3.11113
256.96	3.01112
257.179	8.5406
257.397	10.35003
257.616	6.18657
257.835	5.98314
258.054	15.0657
258.273	10.65739
258.492	11.3381
258.711	6.51768
258.93	2.99611
259.148	4.90231
259.367	4.72244
259.586	5.68824
259.805	2.37285
260.023	5.39009
260.242	3.99859
260.461	2.76554
260.68	1.27424
260.898	4.57834
261.117	1.39908
261.336	0.81047
261.554	3.58485
261.773	3.50269
261.992	0.8226
262.21	3.27205
262.429	3.96723
262.648	7.70743
262.866	8.29476
263.085	5.88528
263.303	5.13857
263.522	8.70443
263.74	9.39462
263.959	15.71451
264.178	7.63424
264.396	6.83405
264.615	4.85637
264.833	10.39744
265.051	9.21427
265.27	11.18251
265.488	11.31979
265.707	6.32589
265.925	11.34732
266.144	5.19432
266.362	5.62502
266.58	5.54991
266.799	5.02962
267.017	6.07637
267.235	5.19959
267.454	3.28896
267.672	1.85873
267.89	4.39403
268.109	4.42023
268.327	4.30577
268.545	1.10128
268.763	3.98646
268.982	1.39836
269.2	4.22622
269.418	3.09016
269.636	1.89421
269.854	5.02424
270.073	3.29009
270.291	1.943
270.509	1.74861
270.727	4.446
270.945	7.24843
271.163	7.29919
271.381	1.41462
271.599	3.24495
271.817	5.47149
272.036	1.89187
272.254	3.11203
272.472	2.59331
272.69	2.54176
272.908	2.34886
273.126	4.57409
273.344	5.367
273.562	2.0182
273.779	2.83874
273.997	3.88345
274.215	4.24381
274.433	2.92323
274.651	4.46204
274.869	4.86185
275.087	2.98218
275.305	4.15709
275.523	2.42345
275.74	3.0781
275.958	5.48198
276.176	8.33297
276.394	2.50086
276.612	3.30466
276.829	3.3269
277.047	2.8028
277.265	3.02286
277.483	3.785
277.7	4.29356
277.918	3.58586
278.136	6.27191
278.353	2.98016
278.571	1.72985
278.789	4.52499
279.006	0.88793
279.224	3.19045
279.442	5.16934
279.659	3.53602
279.877	2.76908
280.094	5.79959
280.312	1.16559
280.529	3.44696
280.747	0.91334
280.964	2.87948
281.182	6.21211
281.399	2.84148
281.617	3.97663
281.834	2.62868
282.052	1.86108
282.269	3.16176
282.487	2.53068
282.704	2.20279
282.921	2.32692
283.139	3.57054
283.356	4.1467
283.574	3.80876
283.791	2.0555
284.008	5.76578
284.226	2.89514
284.443	3.28369
284.66	4.38159
284.877	3.55528
285.095	2.14268
285.312	1.73535
285.529	1.01903
285.746	0.84109
285.964	2.16078
286.181	1.38874
286.398	1.93744
286.615	2.72712
286.832	2.64848
287.05	0.582
287.267	1.87955
287.484	1.83744
287.701	2.69145
287.918	2.67352
288.135	2.73642
288.352	1.16779
288.569	1.46864
288.786	2.41046
289.003	2.07655
289.22	3.02619
289.437	1.76384
289.654	2.91338
289.871	3.09385
290.088	3.07108
290.305	2.32014
290.522	1.88436
290.739	2.02092
290.956	3.13234
291.173	3.64938
291.39	3.5032
291.607	2.53835
291.824	1.74639
292.04	1.37305
292.257	2.91737
292.474	3.235
292.691	1.93246
292.908	1.0604
293.125	1.70029
293.341	1.06281
293.558	4.98072
293.775	1.92343
293.992	2.01641
294.208	0.893
294.425	1.34856
294.642	1.96772
294.858	3.10483
295.075	0.66987
295.292	2.03747
295.508	2.44141
295.725	4.16749
295.942	1.74602
296.158	1.41242
296.375	2.18815
296.591	1.67321
296.808	1.82836
297.024	2.25939
297.241	2.46736
297.458	2.65317
297.674	0.40819
297.891	2.07062
298.107	1.72137
298.323	1.3479
298.54	3.40685
298.756	1.64985
298.973	1.01529
299.189	3.54579
299.406	1.66628
299.622	3.26785
299.838	3.24097
300.055	3.15605
300.271	1.15441
300.487	1.53534
300.704	1.82505
300.92	1.27607
301.136	4.83664
301.353	3.22415
301.569	2.40781
301.785	2.74263
302.001	3.24996
302.218	2.86771
302.434	3.0091
302.65	1.51902
302.866	2.16024
303.083	4.66485
303.299	4.59919
303.515	2.82416
303.731	2.93292
303.947	1.30593
304.163	2.09151
304.379	2.86509
304.595	3.10559
304.812	2.08075
305.028	2.03974
305.244	2.47723
305.46	3.37841
305.676	3.46195
305.892	3.98952
306.108	3.35515
306.324	2.41891
306.54	4.59726
306.756	3.29008
306.972	3.23839
307.187	2.6667
307.403	4.13244
307.619	2.41102
307.835	3.99771
308.051	4.26794
308.267	1.85397
308.483	3.95233
308.699	3.32517
308.914	2.93596
309.13	2.71058
309.346	1.70864
309.562	2.03502
309.778	1.72988
309.993	3.4212
310.209	2.99959
310.425	1.84697
310.641	2.80485
310.856	1.97382
311.072	1.94751
311.288	2.77433
311.503	3.12957
311.719	1.38473
311.935	1.31075
312.15	3.48275
312.366	2.96806
312.581	3.28863
312.797	2.84038
313.013	3.66938
313.228	2.29642
313.444	2.76592
313.659	2.44845
313.875	3.43179
314.09	2.78266
314.306	4.29291
314.521	3.77129
314.737	3.67289
314.952	2.93319
315.168	2.98579
315.383	3.37395
315.599	2.82175
315.814	2.64134
316.029	3.78201
316.245	2.00844
316.46	1.58282
316.675	4.02682
316.891	4.69246
317.106	5.76644
317.321	3.21983
317.537	3.65615
317.752	3.88424
317.967	3.83283
318.183	2.20686
318.398	2.83356
318.613	3.93556
318.828	4.4993
319.043	3.93901
319.259	2.90511
319.474	3.30487
319.689	4.45797
319.904	1.68191
320.119	3.83573
320.334	3.42442
320.549	3.0324
320.765	4.19163
320.98	3.54311
321.195	3.8664
321.41	3.23219
321.625	3.98713
321.84	4.93102
322.055	4.73394
322.27	2.86363
322.485	2.32415
322.7	3.67575
322.915	4.1756
323.13	2.67453
323.345	4.87927
323.56	4.12199
323.775	4.051
323.989	3.72884
324.204	3.70119
324.419	4.47812
324.634	2.30567
324.849	3.2498
325.064	6.48475
325.279	4.40022
325.493	3.79204
325.708	4.21766
325.923	2.74088
326.138	3.07074
326.352	4.88503
326.567	4.34792
326.782	3.07792
326.997	2.92164
327.211	3.96006
327.426	3.83052
327.641	3.1958
327.855	2.16298
328.07	3.86718
328.285	5.22366
328.499	3.17669
328.714	3.66604
328.928	3.99921
329.143	3.37256
329.358	4.39769
329.572	4.4598
329.787	4.91168
330.001	5.96205
330.216	2.41414
330.43	5.45425
330.645	4.90986
330.859	4.38091
331.074	2.95684
331.288	3.64771
331.503	5.0631
331.717	2.68364
331.931	3.76859
332.146	3.89308
332.36	5.36408
332.575	4.02885
332.789	3.97939
333.003	4.06724
333.218	4.3473
333.432	3.34662
333.646	4.63144
333.86	5.49691
334.075	5.32586
334.289	3.36327
334.503	2.79822
334.717	4.3165
334.932	4.07613
335.146	4.82333
335.36	3.29094
335.574	4.28305
335.788	3.96606
336.003	4.67928
336.217	4.43882
336.431	4.2721
336.645	3.33997
336.859	2.77245
337.073	3.72671
337.287	4.24514
337.501	3.01225
337.715	4.4419
337.929	4.72886
338.143	3.05552
338.357	3.80919
338.571	3.45667
338.785	4.53345
338.999	3.52202
339.213	3.58178
339.427	2.75176
339.641	5.13487
339.855	3.68373
340.069	3.55685
340.283	4.85235
340.497	5.51784
340.711	4.55648
340.924	4.13891
341.138	3.2256
341.352	2.97534
341.566	4.36751
341.78	2.78197
341.993	3.76149
342.207	3.41268
342.421	4.31292
342.635	3.89918
342.848	3.85756
343.062	2.15774
343.276	3.54273
343.49	5.83461
343.703	3.56177
343.917	5.16522
344.131	5.27535
344.344	3.60786
344.558	4.04957
344.771	3.15766
344.985	5.57777
345.199	5.564
345.412	4.47942
345.626	4.72367
345.839	2.95235
346.053	3.32996
346.266	3.31683
346.48	4.76822
346.693	4.69144
346.907	4.40651
347.12	3.3874
347.334	4.51708
347.547	4.5857
347.76	3.87401
347.974	5.22965
348.187	4.54184
348.401	4.08127
348.614	3.66405
348.827	4.05994
349.041	4.78987
349.254	2.94006
349.467	4.08154
349.681	3.40114
349.894	3.8089
350.107	5.329
350.32	6.06287
350.534	3.23396
350.747	4.10437
350.96	3.6708
351.173	3.80721
351.386	4.172
351.6	3.89698
351.813	4.00095
352.026	4.16887
352.239	3.46412
352.452	4.08082
352.665	5.28397
352.878	4.39556
353.092	6.13076
353.305	5.13097
353.518	4.55498
353.731	3.77368
353.944	5.39237
354.157	4.07111
354.37	3.95982
354.583	3.69079
354.796	3.39065
355.009	5.29868
355.222	4.80116
355.435	4.53875
355.647	5.39149
355.86	3.96193
356.073	4.88295
356.286	4.16528
356.499	5.40709
356.712	5.15094
356.925	5.23968
357.138	5.32811
357.35	4.03291
357.563	4.45895
357.776	4.86712
357.989	4.67776
358.201	5.14556
358.414	4.95915
358.627	5.752
358.84	4.59445
359.052	3.76754
359.265	4.23742
359.478	5.52521
359.69	2.8603
359.903	5.58661
360.116	5.6849
360.328	3.91394
360.541	5.62487
360.753	4.44878
360.966	4.77771
361.179	4.9648
361.391	4.75156
361.604	4.74511
361.816	4.81501
362.029	4.80059
362.241	4.38534
362.454	4.77132
362.666	4.37285
362.879	5.33166
363.091	4.63018
363.304	4.56187
363.516	4.67485
363.728	4.12479
363.941	5.1003
364.153	4.9623
364.366	3.4539
364.578	4.18753
364.79	5.04904
365.003	4.99265
365.215	4.32168
365.427	5.38963
365.639	5.67138
365.852	5.01321
366.064	6.51639
366.276	4.84044
366.488	5.20935
366.701	4.68673
366.913	4.71619
367.125	4.7877
367.337	4.34635
367.549	4.61249
367.762	4.99795
367.974	4.83739
368.186	4.6581
368.398	5.59228
368.61	5.23876
368.822	5.39488
369.034	4.65585
369.246	5.50171
369.458	7.21554
369.67	4.42155
369.882	6.26914
370.094	3.70882
370.306	6.17238
370.518	4.81632
370.73	4.71103
370.942	4.68356
371.154	5.20909
371.366	4.85577
371.578	5.4453
371.79	4.90034
372.002	5.87691
372.214	6.75734
372.425	5.06297
372.637	6.18842
372.849	5.45788
373.061	3.71462
373.273	5.4077
373.484	5.40754
373.696	5.74988
373.908	3.61114
374.12	5.89312
374.331	5.47361
374.543	4.60548
374.755	4.57381
374.967	5.28876
375.178	5.88474
375.39	4.85334
375.602	5.35437
375.813	4.0832
376.025	4.56296
376.236	5.42589
376.448	5.61009
376.66	5.14881
376.871	5.18778
377.083	6.30193
377.294	6.67915
377.506	5.10344
377.717	6.33963
377.929	5.61474
378.14	5.14699
378.352	5.63522
378.563	5.65605
378.775	6.36283
378.986	4.51906
379.197	5.17664
379.409	4.79923
379.62	5.67626
379.832	5.69034
380.043	5.37406
380.254	5.62501
380.466	4.70299
380.677	7.50401
380.888	6.72918
381.1	7.23408
381.311	7.30916
381.522	5.61108
381.733	7.45199
381.945	5.48777
382.156	5.44565
382.367	5.05668
382.578	7.40232
382.789	7.44949
383.001	5.12979
383.212	6.67481
383.423	6.73415
383.634	6.4628
383.845	6.0645
384.056	5.43451
384.267	5.74019
384.478	5.68074
384.69	4.95637
384.901	5.95516
385.112	5.86642
385.323	6.92371
385.534	5.92858
385.745	5.89446
385.956	6.03066
386.167	5.13953
386.378	6.05985
386.588	5.29503
386.799	5.2479
387.01	4.71052
387.221	6.24846
387.432	5.74876
387.643	6.90429
387.854	5.56516
388.065	5.45832
388.275	5.69383
388.486	5.35778
388.697	5.71736
388.908	5.35455
389.119	6.53201
389.329	6.82592
389.54	5.86282
389.751	6.01697
389.962	6.72683
390.172	5.89023
390.383	5.75411
390.594	5.44033
390.804	5.6119
391.015	5.69948
391.226	6.03085
391.436	6.39203
391.647	6.2155
391.858	6.3526
392.068	5.08817
392.279	5.23916
392.489	6.14685
392.7	6.61729
392.91	5.40645
393.121	5.34881
393.331	6.26906
393.542	6.75831
393.752	6.51762
393.963	6.39702
394.173	6.35407
394.384	6.4121
394.594	6.21004
394.804	5.34832
395.015	6.10848
395.225	6.32108
395.436	5.38072
395.646	6.15026
395.856	5.67925
396.067	5.03721
396.277	6.55518
396.487	6.24841
396.697	6.2871
396.908	6.21626
397.118	6.33804
397.328	6.09708
397.538	6.76726
397.749	5.43824
397.959	6.66187
398.169	6.35251
398.379	5.22467
398.589	6.44721
398.8	6.23674
399.01	6.14346
399.22	5.78711
399.43	7.44595
399.64	6.08123
399.85	6.51566
400.06	6.10065
400.27	5.45707
400.48	5.96364
400.69	7.01865
400.9	5.71638
401.11	5.38679
401.32	6.55404
401.53	5.74526
401.74	7.12169
401.95	6.50667
402.16	5.74423
402.37	6.23763
402.58	5.93056
402.79	6.58987
403	7.00928
403.209	5.84613
403.419	7.04283
403.629	5.66747
403.839	6.98252
404.049	6.84571
404.258	6.10687
404.468	5.80203
404.678	6.56112
404.888	7.10756
405.097	6.11094
405.307	6.18407
405.517	6.71803
405.727	6.44588
405.936	6.0183
406.146	6.38462
406.356	7.1607
406.565	6.14771
406.775	6.00341
406.984	5.89496
407.194	7.33412
407.404	6.16351
407.613	6.56549
407.823	6.73776
408.032	6.83949
408.242	6.9273
408.451	5.91262
408.661	6.1371
408.87	7.46044
409.08	5.88372
409.289	6.5948
409.499	6.58717
409.708	6.46497
409.918	5.20328
410.127	6.72144
410.336	7.42488
410.546	6.81034
410.755	6.11265
410.964	6.195
411.174	5.81323
411.383	6.59781
411.592	6.55708
411.802	5.73109
412.011	6.75052
412.22	6.18757
412.429	7.38228
412.639	7.19704
412.848	6.92823
413.057	7.18765
413.266	7.17656
413.475	6.4533
413.685	6.8183
413.894	7.14924
414.103	7.32582
414.312	7.09564
414.521	6.41422
414.73	6.68749
414.939	8.03877
415.148	7.03846
415.357	6.97281
415.566	6.65611
415.776	6.60073
415.985	6.75151
416.194	7.35105
416.403	8.20825
416.611	6.2689
416.82	6.77057
417.029	7.11313
417.238	6.7934
417.447	6.68296
417.656	7.02655
417.865	6.81148
418.074	7.15587
418.283	7.24218
418.492	7.83871
418.7	7.68277
418.909	8.53997
419.118	7.68699
419.327	8.11659
419.536	7.90997
419.744	7.95036
419.953	9.12999
420.162	9.31274
420.371	8.76294
420.579	9.13168
420.788	9.90416
420.997	9.9539
421.205	10.13729
421.414	9.84944
421.623	9.89392
421.831	9.56567
422.04	9.93802
422.249	9.10612
422.457	9.61319
422.666	8.8875
422.874	9.59878
423.083	9.77802
423.291	9.87769
423.5	9.7672
423.708	10.10766
423.917	10.48387
424.125	10.07243
424.334	9.91516
424.542	11.40305
424.751	10.83014
424.959	10.38872
425.167	10.41664
425.376	10.24842
425.584	9.18029
425.793	9.17212
426.001	8.29386
426.209	8.44272
426.418	7.49919
426.626	7.25699
426.834	7.19696
427.042	7.51043
