Data from WindowProjectSample_Transmission__39__00039.txt Node

Date: Sat May 03 16:26:59 EDT 2025
User: jessi
Spectrometer: SR400872
Trigger mode: 0
Integration Time (sec): 5.000010E-1
Scans to average: 6
Electric dark correction enabled: true
Nonlinearity correction enabled: true
Boxcar width: 0
XAxis mode: Wavelengths
Number of Pixels in Spectrum: 3648
>>>>>Begin Spectral Data<<<<<
184.909	181724.27362
185.132	1659.05784
185.355	-2076.44024
185.578	3305.1287
185.801	-517.60962
186.024	6465.09006
186.247	1086.26422
186.47	963.43857
186.693	-387.56554
186.916	316.38475
187.139	10306.55187
187.362	3789.79955
187.585	2723.45687
187.808	-1415.51149
188.031	220.50088
188.254	7110.5864
188.476	616.6463
188.699	-4457.11509
188.922	-545.58433
189.145	-4364.40793
189.368	-444.73683
189.591	-839.38114
189.813	-2058.97928
190.036	5054.43728
190.259	2811.33933
190.482	2467.88014
190.705	8382.11827
190.927	-1749.74352
191.15	-1538.56904
191.373	4811.42257
191.595	-1856.45574
191.818	9497.51789
192.041	-192.32451
192.263	-2536.59745
192.486	-1030.22038
192.709	9248.80236
192.931	-2718.01804
193.154	-1991.52792
193.377	4779.38834
193.599	5808.55475
193.822	-1882.87402
194.044	-2064.7078
194.267	662.14149
194.489	411.3817
194.712	2156.80132
194.934	3397.30146
195.157	-8458.60298
195.379	2143.03759
195.602	5249.24906
195.824	5686.17895
196.047	-10215.44978
196.269	-10862.22007
196.492	-1187.6219
196.714	-5576.1638
196.936	4579.65213
197.159	-2600.09027
197.381	-553.48762
197.604	1212.2505
197.826	-3454.5473
198.048	-1441.53131
198.271	-12395.21026
198.493	9769.42362
198.715	-2577.96824
198.938	-933.8331
199.16	-4048.82642
199.382	1744.14643
199.604	-1575.28815
199.827	-1425.13416
200.049	-4260.72487
200.271	2305.03007
200.493	-25394.20369
200.715	5057.81407
200.938	12868.27355
201.16	-238897.51014
201.382	-5504.80947
201.604	-1075.76635
201.826	-7088.38149
202.048	-6405.86068
202.27	-4397.42188
202.492	-3682.90328
202.715	-1452.7637
202.937	-3633.32187
203.159	1124.43073
203.381	-91453.02532
203.603	-1014.58476
203.825	-1385.38421
204.047	2470.64546
204.269	-875.98542
204.491	6685.49025
204.713	-8472.0637
204.935	40338.28794
205.156	2045.8997
205.378	-7943.29033
205.6	-1582.60928
205.822	6337.60695
206.044	-254.59293
206.266	-1902.50476
206.488	785.46864
206.71	-530911.5497
206.932	-14943.30737
207.153	11354.47356
207.375	-2299.26207
207.597	15709.17925
207.819	1721.66902
208.041	6437.975
208.262	620.15459
208.484	-976.17226
208.706	-904.96989
208.927	10905.3092
209.149	-7644.56706
209.371	-2600.23169
209.593	-1992.08305
209.814	-3397.88588
210.036	2159.07489
210.258	-633.135
210.479	1724.79378
210.701	818.76647
210.922	4030.5118
211.144	-1374.81507
211.366	5724.49415
211.587	-615.95612
211.809	-3468.40247
212.03	-2101.77516
212.252	-471.19556
212.473	2809.98123
212.695	-669.83789
212.916	-884.68314
213.138	804.5633
213.359	-1248.5496
213.581	-3330.20849
213.802	-1133.43038
214.024	10983.37176
214.245	-1093.17723
214.466	-124.84135
214.688	-3970.79247
214.909	-817.49281
215.131	8858.00763
215.352	-1186.92139
215.573	-244168.65692
215.795	4551.77909
216.016	-3977.51056
216.237	-572.87847
216.459	-11798.11324
216.68	-1494.24299
216.901	-1601.81637
217.122	1824.69489
217.344	-8470.00533
217.565	-1607.97282
217.786	23798.71216
218.007	826.50691
218.228	-2893.54833
218.45	-5451.41449
218.671	-1241.91792
218.892	969.11482
219.113	1821.45231
219.334	366.16743
219.555	-5893.68396
219.776	34431.30341
219.997	-6885.07482
220.219	-9231.09982
220.44	-4778.93533
220.661	-1311.3925
220.882	12692.04905
221.103	-882.31321
221.324	2430.35384
221.545	-6856.45942
221.766	-1504.27319
221.987	-422.69957
222.208	1768.70399
222.429	6492.68147
222.65	-120.96867
222.87	-695.95767
223.091	39854.79444
223.312	772.17861
223.533	-2121.27742
223.754	3564.94174
223.975	1697.30461
224.196	-766.95023
224.417	-31489.92344
224.637	-2375.5398
224.858	542.53488
225.079	3601.06567
225.3	1735.80845
225.521	3529.66565
225.741	-2687.70865
225.962	1617.2423
226.183	1093.29922
226.404	1878.57533
226.624	1738.73217
226.845	1420.80161
227.066	2415.98917
227.286	619.26707
227.507	420.02022
227.728	372.28963
227.948	532.92926
228.169	140.64989
228.389	120.40444
228.61	61.57814
228.831	84.42263
229.051	7.00463
229.272	44.45301
229.492	62.75475
229.713	23.91437
229.933	51.87752
230.154	39.29668
230.374	70.90663
230.595	48.87848
230.815	34.00083
231.036	54.50738
231.256	-10.43694
231.477	103.76281
231.697	55.70039
231.917	65.14871
232.138	81.96725
232.358	176.5823
232.579	179.66843
232.799	23.63444
233.019	159.41855
233.24	227.68668
233.46	70.08691
233.68	111.72294
233.901	85.88608
234.121	46.44957
234.341	15.18777
234.561	-5.08694
234.782	34.30203
235.002	121.61578
235.222	-1.12975
235.442	94.31643
235.662	49.18865
235.883	110.27448
236.103	86.92048
236.323	70.15357
236.543	56.31475
236.763	66.83002
236.983	66.55395
237.203	80.98927
237.423	106.60694
237.643	156.75751
237.864	141.44412
238.084	35.7199
238.304	48.99714
238.524	89.9808
238.744	70.53897
238.964	111.95902
239.184	104.34356
239.404	99.29487
239.624	48.78022
239.843	95.86937
240.063	49.37833
240.283	32.03522
240.503	38.78008
240.723	36.08859
240.943	20.04861
241.163	27.78299
241.383	20.93735
241.603	8.46395
241.822	12.3762
242.042	8.40102
242.262	10.43567
242.482	11.72197
242.702	14.59184
242.921	4.61353
243.141	9.92172
243.361	8.05641
243.581	13.10472
243.8	11.19533
244.02	7.79119
244.24	14.63771
244.459	12.81764
244.679	26.02106
244.899	16.79867
245.118	20.43125
245.338	15.67074
245.558	20.88503
245.777	11.52367
245.997	13.17932
246.216	14.05166
246.436	7.29663
246.655	5.38278
246.875	4.22648
247.094	8.12098
247.314	2.8782
247.533	4.41081
247.753	5.90144
247.972	4.27442
248.192	2.00907
248.411	2.72681
248.631	5.12782
248.85	6.33654
249.07	4.7264
249.289	9.13852
249.508	6.70713
249.728	10.18164
249.947	11.2268
250.166	12.81836
250.386	6.68543
250.605	10.29583
250.824	15.0168
251.044	11.77181
251.263	35.50335
251.482	18.21715
251.701	18.33907
251.921	1.13675
252.14	5.98946
252.359	5.37677
252.578	13.29404
252.798	4.95519
253.017	13.29821
253.236	7.27915
253.455	8.95558
253.674	17.47643
253.893	8.20927
254.112	10.77707
254.331	16.23305
254.551	13.95235
254.77	5.46561
254.989	20.44728
255.208	20.13058
255.427	22.36619
255.646	19.3166
255.865	30.36305
256.084	13.91422
256.303	16.75368
256.522	21.13568
256.741	3.78185
256.96	5.37783
257.179	11.41937
257.397	13.91921
257.616	7.80107
257.835	8.14517
258.054	21.6209
258.273	12.85825
258.492	15.53609
258.711	8.9287
258.93	4.03839
259.148	5.42201
259.367	5.37575
259.586	6.98092
259.805	3.29049
260.023	6.69113
260.242	5.06998
260.461	3.78714
260.68	2.23482
260.898	6.01066
261.117	1.76449
261.336	1.38957
261.554	5.47664
261.773	5.02642
261.992	0.85657
262.21	5.2793
262.429	6.27837
262.648	10.41026
262.866	11.73448
263.085	7.50771
263.303	7.38721
263.522	12.77049
263.74	13.20034
263.959	21.07264
264.178	10.82196
264.396	9.73813
264.615	6.78883
264.833	17.29188
265.051	12.90482
265.27	14.87154
265.488	15.36086
265.707	9.23436
265.925	15.89509
266.144	6.59844
266.362	8.35666
266.58	8.67802
266.799	7.3233
267.017	8.52754
267.235	7.37018
267.454	4.99245
267.672	2.97731
267.89	6.15634
268.109	6.77404
268.327	6.03488
268.545	1.84939
268.763	6.28108
268.982	2.18077
269.2	7.79767
269.418	3.76466
269.636	3.69267
269.854	6.21252
270.073	5.52097
270.291	2.73998
270.509	3.21051
270.727	6.0279
270.945	10.07676
271.163	9.70401
271.381	2.69885
271.599	4.01543
271.817	7.09871
272.036	2.40086
272.254	4.44026
272.472	3.67372
272.69	3.5808
272.908	3.4928
273.126	5.97892
273.344	7.55443
273.562	2.7303
273.779	3.54799
273.997	5.30446
274.215	6.14014
274.433	4.28336
274.651	6.19147
274.869	6.81826
275.087	3.81233
275.305	5.63997
275.523	3.77046
275.74	4.48063
275.958	7.78781
276.176	11.13745
276.394	3.64001
276.612	4.90533
276.829	4.53985
277.047	3.86584
277.265	4.59105
277.483	5.05395
277.7	5.81732
277.918	5.0793
278.136	8.93978
278.353	4.34522
278.571	2.32248
278.789	7.03502
279.006	1.64912
279.224	4.31918
279.442	6.67301
279.659	5.10962
279.877	3.87087
280.094	7.79007
280.312	1.39998
280.529	4.50976
280.747	1.48798
280.964	3.55201
281.182	8.506
281.399	3.98852
281.617	5.55403
281.834	3.86314
282.052	3.14693
282.269	4.53209
282.487	3.53462
282.704	2.61717
282.921	3.56892
283.139	4.28778
283.356	5.67002
283.574	5.14038
283.791	2.71332
284.008	7.43711
284.226	4.0155
284.443	4.52687
284.66	5.60403
284.877	4.75057
285.095	2.98766
285.312	2.16799
285.529	1.54276
285.746	1.27269
285.964	2.748
286.181	1.85415
286.398	2.68815
286.615	3.67187
286.832	3.52522
287.05	1.20547
287.267	2.3103
287.484	2.93013
287.701	3.96019
287.918	3.6599
288.135	3.77257
288.352	1.81826
288.569	2.13864
288.786	3.41333
289.003	2.44059
289.22	3.86735
289.437	2.35586
289.654	4.02954
289.871	4.32387
290.088	4.20699
290.305	2.98251
290.522	2.42042
290.739	3.10091
290.956	4.36033
291.173	5.6165
291.39	4.69798
291.607	3.29325
291.824	2.75626
292.04	1.75273
292.257	4.20449
292.474	4.38297
292.691	2.93235
292.908	1.38416
293.125	2.67593
293.341	1.46102
293.558	7.21887
293.775	3.06935
293.992	2.85482
294.208	1.19552
294.425	1.78601
294.642	2.51696
294.858	3.37594
295.075	1.18639
295.292	2.74545
295.508	3.36614
295.725	5.16933
295.942	2.37115
296.158	1.69294
296.375	2.79878
296.591	2.32278
296.808	2.23867
297.024	2.59934
297.241	2.96357
297.458	3.33762
297.674	0.30615
297.891	2.51634
298.107	2.00186
298.323	1.50042
298.54	3.81622
298.756	1.81424
298.973	0.90255
299.189	3.95495
299.406	1.75105
299.622	4.03986
299.838	4.0371
300.055	3.77791
300.271	1.05346
300.487	1.12249
300.704	1.72116
300.92	1.14268
301.136	5.43033
301.353	3.87905
301.569	2.77276
301.785	3.256
302.001	3.61797
302.218	3.24502
302.434	3.35311
302.65	1.16373
302.866	2.19031
303.083	5.42179
303.299	5.0475
303.515	2.64883
303.731	3.1555
303.947	1.10013
304.163	1.6879
304.379	3.17606
304.595	3.57317
304.812	2.04281
305.028	1.92132
305.244	2.2152
305.46	3.81037
305.676	4.07469
305.892	4.60896
306.108	3.13262
306.324	2.22984
306.54	5.22543
306.756	3.46076
306.972	3.58879
307.187	2.51586
307.403	4.83257
307.619	1.87315
307.835	4.29632
308.051	4.79096
308.267	1.17588
308.483	4.12467
308.699	3.42068
308.914	3.14804
309.13	2.70143
309.346	0.87675
309.562	1.4049
309.778	0.93796
309.993	3.41118
310.209	2.59225
310.425	1.00034
310.641	2.47537
310.856	1.39827
311.072	1.31133
311.288	2.62406
311.503	2.8155
311.719	0.54869
311.935	0.43535
312.15	3.13091
312.366	2.73837
312.581	3.25949
312.797	2.81885
313.013	3.63279
313.228	2.04572
313.444	2.68851
313.659	2.09323
313.875	3.16052
314.09	2.47629
314.306	4.02054
314.521	3.858
314.737	3.56232
314.952	3.03294
315.168	2.7897
315.383	3.55941
315.599	2.2618
315.814	2.03325
316.029	3.76559
316.245	1.16288
316.46	1.19082
316.675	4.41544
316.891	5.38048
317.106	6.51917
317.321	3.7619
317.537	3.42114
317.752	3.59744
317.967	3.81289
318.183	2.17886
318.398	2.4762
318.613	4.24605
318.828	4.74545
319.043	3.88525
319.259	2.1766
319.474	3.40716
319.689	4.39808
319.904	0.69829
320.119	3.65152
320.334	3.03525
320.549	2.50179
320.765	3.98305
320.98	3.01685
321.195	4.29478
321.41	2.58287
321.625	3.6448
321.84	5.17978
322.055	5.37872
322.27	1.97506
322.485	1.36555
322.7	3.34782
322.915	4.28355
323.13	1.95543
323.345	4.70031
323.56	4.14321
323.775	3.71456
323.989	3.51983
324.204	3.09084
324.419	3.88737
324.634	1.20148
324.849	2.69842
325.064	5.93974
325.279	4.49922
325.493	3.83155
325.708	4.09494
325.923	1.78989
326.138	1.85975
326.352	4.79672
326.567	3.93971
326.782	2.52388
326.997	1.6909
327.211	3.27894
327.426	3.22082
327.641	2.59697
327.855	1.46954
328.07	3.68718
328.285	4.87126
328.499	2.33683
328.714	3.58233
328.928	3.91434
329.143	3.1136
329.358	4.29166
329.572	4.1663
329.787	4.54929
330.001	6.08611
330.216	0.96263
330.43	5.2883
330.645	5.03145
330.859	3.9974
331.074	2.06286
331.288	3.0925
331.503	4.72161
331.717	1.45799
331.931	2.91769
332.146	2.97399
332.36	5.21293
332.575	3.49441
332.789	3.03917
333.003	2.79058
333.218	3.6596
333.432	2.69608
333.646	3.642
333.86	4.67235
334.075	5.11803
334.289	2.34956
334.503	1.99804
334.717	3.69053
334.932	3.46766
335.146	4.63492
335.36	2.7858
335.574	3.76982
335.788	3.33576
336.003	4.56279
336.217	3.91715
336.431	3.79217
336.645	2.19796
336.859	1.7859
337.073	2.54583
337.287	3.18776
337.501	1.76797
337.715	3.20036
337.929	3.77516
338.143	1.653
338.357	2.69696
338.571	1.87634
338.785	3.44724
338.999	2.24815
339.213	2.58097
339.427	1.2315
339.641	4.11361
339.855	2.83228
340.069	2.21908
340.283	4.2308
340.497	5.01646
340.711	3.39207
340.924	2.46568
341.138	1.73632
341.352	1.32912
341.566	3.01044
341.78	1.04023
341.993	2.20749
342.207	1.72089
342.421	3.11861
342.635	3.27048
342.848	2.31158
343.062	0.38398
343.276	2.13817
343.49	5.62163
343.703	1.89577
343.917	3.80557
344.131	3.95433
344.344	1.89377
344.558	2.16829
344.771	1.8953
344.985	4.19229
345.199	4.73339
345.412	3.15368
345.626	3.13029
345.839	1.05911
346.053	1.56181
346.266	1.52476
346.48	3.75132
346.693	3.12933
346.907	3.3213
347.12	1.61116
347.334	2.89423
347.547	3.15722
347.76	2.66527
347.974	4.19829
348.187	3.06026
348.401	2.46583
348.614	2.1182
348.827	2.36759
349.041	3.22514
349.254	1.06135
349.467	2.52735
349.681	1.24861
349.894	1.83287
350.107	4.25617
350.32	4.52024
350.534	0.9014
350.747	2.27498
350.96	1.74442
351.173	2.03726
351.386	2.43511
351.6	2.21945
351.813	1.87517
352.026	2.76697
352.239	1.37036
352.452	2.34012
352.665	3.55748
352.878	2.46089
353.092	5.1422
353.305	3.09042
353.518	3.11263
353.731	1.56112
353.944	4.09162
354.157	1.81988
354.37	1.74684
354.583	1.27845
354.796	1.0232
355.009	3.84072
355.222	2.53198
355.435	2.71995
355.647	3.69572
355.86	1.48009
356.073	2.22125
356.286	2.05419
356.499	3.43117
356.712	3.03687
356.925	2.96281
357.138	3.7329
357.35	1.33155
357.563	2.07449
357.776	2.41713
357.989	2.23056
358.201	3.06365
358.414	2.47381
358.627	3.8616
358.84	2.15118
359.052	1.39182
359.265	1.21016
359.478	3.44948
359.69	-0.31946
359.903	3.04327
360.116	3.40211
360.328	0.69857
360.541	3.27213
360.753	1.56046
360.966	1.80263
361.179	2.07763
361.391	1.7574
361.604	1.25312
361.816	1.80691
362.029	1.54604
362.241	1.36696
362.454	1.80213
362.666	1.34869
362.879	2.33676
363.091	1.89145
363.304	1.55056
363.516	2.16086
363.728	1.04928
363.941	2.85043
364.153	1.83537
364.366	0.27299
364.578	1.16045
364.79	2.71912
365.003	2.27516
365.215	1.76206
365.427	2.83594
365.639	3.47301
365.852	2.60005
366.064	4.36909
366.276	1.72536
366.488	2.8122
366.701	1.77111
366.913	1.84352
367.125	1.65062
367.337	1.3833
367.549	1.90697
367.762	2.22261
367.974	2.46705
368.186	1.59844
368.398	3.40492
368.61	2.88184
368.822	2.94634
369.034	2.3505
369.246	3.20644
369.458	4.81004
369.67	1.30489
369.882	4.12109
370.094	0.25014
370.306	3.90723
370.518	2.07184
370.73	1.39143
370.942	1.49712
371.154	2.11812
371.366	1.78369
371.578	2.74811
371.79	1.89953
372.002	3.62759
372.214	4.24208
372.425	2.49669
372.637	3.8478
372.849	2.48974
373.061	0.18641
373.273	2.91063
373.484	2.88667
373.696	3.21192
373.908	0.26321
374.12	3.24701
374.331	3.11923
374.543	1.38561
374.755	1.24437
374.967	2.41699
375.178	3.44353
375.39	2.31511
375.602	2.6136
375.813	1.13604
376.025	1.28041
376.236	2.60903
376.448	2.39862
376.66	2.21097
376.871	2.16139
377.083	3.37501
377.294	3.93773
377.506	2.05675
377.717	3.79533
377.929	2.83757
378.14	2.03968
378.352	3.08519
378.563	3.23433
378.775	3.80832
378.986	1.76951
379.197	2.92102
379.409	1.93555
379.62	3.31768
379.832	2.75221
380.043	2.3668
380.254	2.71532
380.466	1.40844
380.677	5.42122
380.888	4.88749
381.1	5.12802
381.311	5.14971
381.522	2.91258
381.733	5.62484
381.945	2.58246
382.156	2.66003
382.367	2.41571
382.578	5.59199
382.789	5.68173
383.001	2.40231
383.212	4.52062
383.423	4.58495
383.634	3.86276
383.845	3.49876
384.056	2.56958
384.267	2.98492
384.478	2.96445
384.69	1.8538
384.901	3.54706
385.112	3.27095
385.323	4.73509
385.534	3.51474
385.745	3.66388
385.956	3.66219
386.167	2.14246
386.378	3.59327
386.588	2.33117
386.799	2.26184
387.01	1.7323
387.221	4.11867
387.432	3.39386
387.643	5.13097
387.854	2.95694
388.065	2.99974
388.275	3.11616
388.486	2.77523
388.697	3.34171
388.908	2.93875
389.119	4.49211
389.329	4.98348
389.54	3.45287
389.751	3.90223
389.962	4.68372
390.172	3.47023
390.383	3.34526
390.594	2.88295
390.804	2.94101
391.015	3.17718
391.226	3.89988
391.436	4.31918
391.647	3.99808
391.858	4.33837
392.068	2.12588
392.279	2.92085
392.489	4.19759
392.7	4.65872
392.91	3.18519
393.121	3.22933
393.331	4.35394
393.542	5.00223
393.752	4.50438
393.963	4.29673
394.173	4.52452
394.384	4.6456
394.594	4.09562
394.804	3.01682
395.015	4.0914
395.225	4.79071
395.436	3.32871
395.646	4.58422
395.856	3.90247
396.067	2.91222
396.277	5.2432
396.487	4.78468
396.697	4.81053
396.908	5.19472
397.118	5.01238
397.328	4.53679
397.538	5.25071
397.749	3.91301
397.959	5.45363
398.169	4.95096
398.379	3.31826
398.589	5.00586
398.8	4.95602
399.01	4.90236
399.22	4.4216
399.43	6.69176
399.64	4.59416
399.85	5.29458
400.06	4.80268
400.27	3.97188
400.48	4.78114
400.69	5.98134
400.9	4.45025
401.11	4.05615
401.32	5.58972
401.53	4.50958
401.74	6.35217
401.95	5.57104
402.16	4.71954
402.37	5.65226
402.58	4.77262
402.79	5.58169
403	6.04806
403.209	4.69825
403.419	6.30028
403.629	4.79157
403.839	6.30413
404.049	6.47055
404.258	5.38754
404.468	5.09
404.678	6.46035
404.888	6.72337
405.097	5.65186
405.307	5.69484
405.517	6.39268
405.727	6.53246
405.936	5.49174
406.146	6.09
406.356	7.06231
406.565	5.74869
406.775	5.45003
406.984	5.39496
407.194	7.88993
407.404	6.08751
407.613	6.25359
407.823	6.80095
408.032	7.35447
408.242	6.91877
408.451	5.4911
408.661	6.21494
408.87	7.85181
409.08	5.59639
409.289	6.37784
409.499	6.6778
409.708	6.36656
409.918	4.63158
410.127	6.79961
410.336	7.87899
410.546	7.08828
410.755	6.34253
410.964	6.21019
411.174	5.57941
411.383	6.96716
411.592	6.88104
411.802	5.8116
412.011	7.07249
412.22	6.3141
412.429	8.28837
412.639	8.06334
412.848	7.72254
413.057	8.32774
413.266	7.78542
413.475	6.82095
413.685	7.5358
413.894	7.51747
414.103	7.94721
414.312	7.50739
414.521	6.60766
414.73	7.47377
414.939	8.83515
415.148	7.62074
415.357	7.41802
415.566	7.32578
415.776	6.905
415.985	7.33999
416.194	8.22254
416.403	9.38232
416.611	6.64512
416.82	7.28554
417.029	7.99472
417.238	7.2957
417.447	7.38434
417.656	7.69381
417.865	7.41134
418.074	7.86863
418.283	8.06649
418.492	9.00627
418.7	8.67024
418.909	9.72726
419.118	8.44416
419.327	8.90225
419.536	8.5014
419.744	8.32531
419.953	9.87196
420.162	9.96378
420.371	8.89656
420.579	9.65158
420.788	10.44645
420.997	10.68949
421.205	10.86068
421.414	10.58167
421.623	10.8994
421.831	10.19134
422.04	10.83426
422.249	9.74551
422.457	10.26267
422.666	9.43535
422.874	10.56617
423.083	10.66762
423.291	10.55043
423.5	10.41759
423.708	10.92119
423.917	11.60648
424.125	10.82195
424.334	10.64629
424.542	12.52378
424.751	11.89681
424.959	11.32342
425.167	11.71036
425.376	11.45942
425.584	10.2419
425.793	10.37111
426.001	9.09952
426.209	10.00861
