Data from WindowProjectSample3_Transmission__35__00035.txt Node

Date: Sun May 04 10:36:55 EDT 2025
User: jessi
Spectrometer: SR400872
Trigger mode: 0
Integration Time (sec): 5.000050E-1
Scans to average: 20
Electric dark correction enabled: true
Nonlinearity correction enabled: true
Boxcar width: 0
XAxis mode: Wavelengths
Number of Pixels in Spectrum: 3648
>>>>>Begin Spectral Data<<<<<
184.909	-1616.63654
185.132	-1288.59514
185.355	-1287.07295
185.578	-1086.83082
185.801	-2773.33837
186.024	-1083.201
186.247	-1465.32318
186.47	-2615.23934
186.693	-232.61867
186.916	-275.57593
187.139	-989.08934
187.362	-1697.77167
187.585	-1095.27383
187.808	-841.65351
188.031	-145682.2703
188.254	-1281.10386
188.476	-811.71589
188.699	-1081.76767
188.922	565.47401
189.145	-1232.49778
189.368	-975.4153
189.591	-3753.52592
189.813	-732.68227
190.036	-1229.40569
190.259	-3249.82465
190.482	-1599.34265
190.705	-1713.24646
190.927	-981.88077
191.15	-1657.47399
191.373	-2124.49234
191.595	-2608.27599
191.818	-1209.84382
192.041	-13071.61953
192.263	-1555.68652
192.486	-444.68408
192.709	-1665.39376
192.931	-4236.22914
193.154	-1204.95777
193.377	-1200.98841
193.599	12350.22011
193.822	-748.86836
194.044	-3950.25339
194.267	-4463.41646
194.489	-1174.22595
194.712	-1843.38022
194.934	-1629.02966
195.157	-1039.25336
195.379	-768.9757
195.602	-838.44831
195.824	-979.27855
196.047	-932.30062
196.269	-1059.45568
196.492	-1084.84037
196.714	-1039.68419
196.936	-1572.87139
197.159	-893.05856
197.381	-888.05513
197.604	-781.45953
197.826	-1953.26212
198.048	-1566.66065
198.271	-1218.74373
198.493	-1033.05222
198.715	-894.90147
198.938	-6926.22141
199.16	-1257.61628
199.382	-889.99206
199.604	-9999.24517
199.827	-1609.69279
200.049	-963.07483
200.271	-928.6311
200.493	-2215.26334
200.715	-953.36018
200.938	-765.76573
201.16	-1288.31628
201.382	-2731.74225
201.604	-1263.77285
201.826	-1184.84403
202.048	-558.9633
202.27	-866.38379
202.492	-1952.3948
202.715	-2048.02991
202.937	-2242.80937
203.159	-1184.91608
203.381	-1577.28048
203.603	-1324.46989
203.825	4076.62956
204.047	-1124.33579
204.269	-3165.76562
204.491	-1438.42405
204.713	-766.96837
204.935	-1290.43255
205.156	-1246.29617
205.378	-3780.26364
205.6	-931.28106
205.822	-1116.00387
206.044	2404.6191
206.266	-1247.77021
206.488	-768.40862
206.71	-1940.75805
206.932	-2383.59159
207.153	-1174.6526
207.375	-936.33719
207.597	-1104.72632
207.819	-878.56992
208.041	-1289.8518
208.262	-1018.25805
208.484	-1828.33643
208.706	-854.70227
208.927	-820.02813
209.149	-2159.65427
209.371	-784.53695
209.593	-700.28581
209.814	-600.64131
210.036	-809.51163
210.258	-593.4293
210.479	-1390.34458
210.701	11507.8105
210.922	-851.25858
211.144	-886.76079
211.366	-1926.00757
211.587	10965.52585
211.809	-997.3385
212.03	-3305.25441
212.252	1719.30234
212.473	-1121.14342
212.695	-4468.23151
212.916	-2802.47501
213.138	-6452.94594
213.359	-988.73308
213.581	-1528.86339
213.802	-955.4551
214.024	-1307.05933
214.245	-11266.07843
214.466	-639.538
214.688	-1299.27462
214.909	-1599.19328
215.131	-2002.98198
215.352	-927.98133
215.573	-1238.9167
215.795	-3222.16282
216.016	-1126.12548
216.237	-4038.57137
216.459	-13800.03446
216.68	-1689.68579
216.901	-1438.19965
217.122	-3571.98736
217.344	-1224.72328
217.565	-1522.0061
217.786	-1433.92106
218.007	-1308.04741
218.228	-4967.78112
218.45	-1133.83306
218.671	-1407.32616
218.892	-1662.85091
219.113	-2198.71345
219.334	-87.88272
219.555	-1433.2206
219.776	-884.34354
219.997	-1368.87601
220.219	-2971.63744
220.44	-1050.21979
220.661	-818.15475
220.882	-1017.3265
221.103	-3005.97582
221.324	5725.30668
221.545	-1921.88898
221.766	-1345.76001
221.987	-2230.21783
222.208	-3011.14573
222.429	-949.30212
222.65	-1172.2318
222.87	5295.20871
223.091	-8144.25557
223.312	4105.53353
223.533	-1717.28088
223.754	-1669.98823
223.975	-2474.68094
224.196	157096.12138
224.417	-10305.15297
224.637	2018.42165
224.858	137.36898
225.079	-7236.80154
225.3	2483.68443
225.521	-868.91869
225.741	8483.86506
225.962	6669.53214
226.183	268.49799
226.404	8948.26645
226.624	1728.67658
226.845	7743.74244
227.066	1798.14217
227.286	745.75609
227.507	257.85139
227.728	270.80191
227.948	496.41894
228.169	141.60349
228.389	153.08944
228.61	84.42391
228.831	114.2043
229.051	12.88481
229.272	68.74851
229.492	106.73051
229.713	29.8057
229.933	69.77705
230.154	63.97383
230.374	103.71027
230.595	75.64154
230.815	46.41349
231.036	80.86504
231.256	-13.33617
231.477	143.50873
231.697	84.79583
231.917	84.49155
232.138	119.91447
232.358	256.02663
232.579	211.08984
232.799	26.65808
233.019	209.90048
233.24	229.57292
233.46	78.21921
233.68	120.76814
233.901	84.67851
234.121	53.72342
234.341	22.10992
234.561	-5.83341
234.782	39.18293
235.002	137.31978
235.222	0.15448
235.442	125.5126
235.662	59.59172
235.883	120.25914
236.103	92.19171
236.323	64.37931
236.543	52.29045
236.763	81.86898
236.983	80.25414
237.203	77.88443
237.423	118.62303
237.643	179.2505
237.864	148.03096
238.084	39.79371
238.304	46.54152
238.524	87.20579
238.744	74.45571
238.964	134.91366
239.184	115.25108
239.404	118.74851
239.624	62.9663
239.843	105.38023
240.063	60.88615
240.283	42.46516
240.503	44.11696
240.723	44.202
240.943	27.58743
241.163	33.95812
241.383	23.04506
241.603	12.98238
241.822	14.71006
242.042	10.1166
242.262	13.42677
242.482	14.8369
242.702	16.56286
242.921	5.82918
243.141	11.40121
243.361	11.50021
243.581	15.604
243.8	14.47746
244.02	8.63941
244.24	15.78465
244.459	15.43778
244.679	32.85855
244.899	20.36116
245.118	23.41768
245.338	21.02198
245.558	23.23149
245.777	13.47577
245.997	16.16576
246.216	15.46949
246.436	9.55114
246.655	7.11406
246.875	5.19912
247.094	9.91294
247.314	3.59776
247.533	6.21866
247.753	7.21686
247.972	5.76757
248.192	2.24981
248.411	3.51051
248.631	6.01349
248.85	7.47592
249.07	7.41884
249.289	10.64182
249.508	7.57767
249.728	12.33942
249.947	12.59859
250.166	15.15642
250.386	7.78048
250.605	11.02828
250.824	19.84274
251.044	13.07928
251.263	39.45163
251.482	22.66349
251.701	18.58382
251.921	0.47047
252.14	5.96936
252.359	7.11644
252.578	16.38119
252.798	6.10269
253.017	14.32282
253.236	7.6312
253.455	9.87498
253.674	19.46711
253.893	8.84457
254.112	14.52091
254.331	20.46112
254.551	17.0859
254.77	7.71168
254.989	23.45291
255.208	17.69792
255.427	26.79769
255.646	22.63402
255.865	32.69658
256.084	15.16018
256.303	18.29687
256.522	22.16992
256.741	5.34963
256.96	6.20045
257.179	13.25783
257.397	18.2226
257.616	9.27305
257.835	10.49642
258.054	24.7535
258.273	16.40232
258.492	16.87136
258.711	10.38746
258.93	5.13818
259.148	6.99942
259.367	6.78778
259.586	8.50612
259.805	3.80962
260.023	7.39264
260.242	5.67682
260.461	4.41496
260.68	2.3053
260.898	6.75187
261.117	2.30238
261.336	1.59726
261.554	5.78033
261.773	5.903
261.992	1.33508
262.21	5.68307
262.429	6.75717
262.648	11.07574
262.866	12.75981
263.085	9.81497
263.303	8.14878
263.522	14.37189
263.74	13.79752
263.959	23.9542
264.178	12.93897
264.396	11.07959
264.615	7.45712
264.833	17.35086
265.051	15.25702
265.27	17.77678
265.488	17.15478
265.707	11.07261
265.925	16.39844
266.144	7.979
266.362	8.98591
266.58	9.68991
266.799	7.80279
267.017	9.14967
267.235	8.42467
267.454	5.87011
267.672	2.89211
267.89	6.67679
268.109	7.48329
268.327	7.11894
268.545	2.0178
268.763	6.28642
268.982	2.85627
269.2	7.52134
269.418	5.19562
269.636	4.01022
269.854	7.03238
270.073	5.20133
270.291	3.2011
270.509	2.80157
270.727	6.84858
270.945	11.38753
271.163	11.27471
271.381	2.65289
271.599	4.86965
271.817	7.95514
272.036	2.7983
272.254	5.26531
272.472	3.51338
272.69	3.78856
272.908	3.92603
273.126	6.34545
273.344	8.15215
273.562	3.02247
273.779	4.37474
273.997	6.75676
274.215	6.4333
274.433	4.8586
274.651	7.05542
274.869	6.95121
275.087	4.07348
275.305	6.66558
275.523	4.116
275.74	4.6754
275.958	8.59144
276.176	11.91966
276.394	4.00457
276.612	5.00775
276.829	5.06092
277.047	4.48002
277.265	4.7605
277.483	5.73125
277.7	6.31428
277.918	5.42371
278.136	9.70032
278.353	4.64936
278.571	2.74748
278.789	7.42242
279.006	1.60463
279.224	4.46522
279.442	7.61808
279.659	5.51728
279.877	3.76054
280.094	8.26165
280.312	1.68902
280.529	5.40275
280.747	1.9597
280.964	4.32921
281.182	8.51297
281.399	4.47723
281.617	5.53559
281.834	3.99925
282.052	3.14683
282.269	4.97687
282.487	4.15575
282.704	3.46515
282.921	3.16327
283.139	5.11938
283.356	6.4309
283.574	5.78236
283.791	2.79417
284.008	7.96035
284.226	4.80483
284.443	5.23595
284.66	6.44484
284.877	5.86676
285.095	3.35837
285.312	2.52352
285.529	1.57143
285.746	1.28354
285.964	3.10211
286.181	2.11792
286.398	3.01704
286.615	4.37276
286.832	3.98644
287.05	1.09837
287.267	2.91484
287.484	4.01266
287.701	4.26344
287.918	4.05466
288.135	4.20281
288.352	1.81962
288.569	2.28111
288.786	3.87808
289.003	2.82722
289.22	4.63271
289.437	2.71995
289.654	4.24314
289.871	4.4654
290.088	4.2844
290.305	3.43187
290.522	2.94017
290.739	3.10663
290.956	4.54768
291.173	5.5931
291.39	5.21646
291.607	3.6558
291.824	2.9847
292.04	2.39581
292.257	4.67943
292.474	5.03055
292.691	3.17109
292.908	1.77618
293.125	2.80936
293.341	1.69793
293.558	7.36105
293.775	3.3383
293.992	3.27122
294.208	1.26629
294.425	2.30142
294.642	2.73532
294.858	4.26686
295.075	1.10282
295.292	3.12612
295.508	3.73696
295.725	5.27592
295.942	2.71293
296.158	1.88648
296.375	3.06313
296.591	2.43115
296.808	2.42629
297.024	2.87149
297.241	3.21488
297.458	3.47973
297.674	0.38402
297.891	2.71485
298.107	2.2795
298.323	1.66426
298.54	3.89298
298.756	2.00474
298.973	0.83893
299.189	4.17294
299.406	1.94709
299.622	4.36448
299.838	4.40336
300.055	3.90487
300.271	0.87329
300.487	1.71624
300.704	1.90767
300.92	1.13874
301.136	5.52522
301.353	4.26952
301.569	3.08352
301.785	3.25356
302.001	3.79688
302.218	3.47229
302.434	3.58618
302.65	1.18187
302.866	2.26332
303.083	5.82426
303.299	5.70646
303.515	2.88208
303.731	3.06397
303.947	1.02678
304.163	2.00773
304.379	3.03428
304.595	3.46974
304.812	2.04782
305.028	1.67403
305.244	2.38648
305.46	3.91852
305.676	3.93831
305.892	4.57244
306.108	3.52154
306.324	2.60391
306.54	5.39809
306.756	3.8035
306.972	3.48302
307.187	2.39884
307.403	5.18689
307.619	2.14823
307.835	4.3984
308.051	4.63691
308.267	1.54628
308.483	4.29635
308.699	3.50786
308.914	2.76181
309.13	2.82908
309.346	0.71545
309.562	1.54686
309.778	0.89327
309.993	3.63563
310.209	2.73642
310.425	1.25418
310.641	2.32141
310.856	1.50152
311.072	1.36193
311.288	2.67991
311.503	2.78416
311.719	0.61275
311.935	0.41391
312.15	3.02312
312.366	2.80626
312.581	3.41379
312.797	2.58252
313.013	3.65427
313.228	1.94124
313.444	2.92985
313.659	1.66999
313.875	3.25348
314.09	2.65438
314.306	4.62103
314.521	3.87419
314.737	3.69477
314.952	3.17975
315.168	2.80844
315.383	3.31338
315.599	2.54404
315.814	2.46204
316.029	3.94438
316.245	1.35033
316.46	0.74225
316.675	4.59591
316.891	5.45142
317.106	6.60913
317.321	3.6085
317.537	3.53689
317.752	3.74683
317.967	4.05136
318.183	1.97979
318.398	2.49457
318.613	4.09875
318.828	4.8204
319.043	3.97167
319.259	2.61774
319.474	3.22026
319.689	4.45043
319.904	0.46398
320.119	3.96841
320.334	3.30731
320.549	2.46458
320.765	4.3494
320.98	3.23501
321.195	4.09295
321.41	2.78205
321.625	3.99026
321.84	5.29812
322.055	5.27018
322.27	2.26777
322.485	1.53366
322.7	3.30569
322.915	4.47129
323.13	1.89497
323.345	4.82408
323.56	3.50788
323.775	3.82233
323.989	3.66898
324.204	3.16394
324.419	4.0024
324.634	1.23593
324.849	2.83789
325.064	5.42788
325.279	4.06333
325.493	3.70153
325.708	4.15744
325.923	1.99013
326.138	2.04632
326.352	4.88972
326.567	4.01522
326.782	2.55253
326.997	1.92303
327.211	3.71015
327.426	3.59966
327.641	2.57535
327.855	0.90289
328.07	3.61037
328.285	5.02909
328.499	2.56272
328.714	3.39825
328.928	4.07974
329.143	2.83314
329.358	4.22476
329.572	4.31484
329.787	4.64682
330.001	6.36821
330.216	1.42404
330.43	5.22681
330.645	5.15942
330.859	4.22109
331.074	1.95959
331.288	3.08145
331.503	4.89786
331.717	1.7732
331.931	2.84671
332.146	3.20913
332.36	5.431
332.575	3.6936
332.789	3.32367
333.003	2.74447
333.218	3.71383
333.432	2.09265
333.646	3.90516
333.86	4.90359
334.075	5.2505
334.289	2.20989
334.503	1.70616
334.717	3.56939
334.932	3.60612
335.146	4.3101
335.36	2.48803
335.574	3.90898
335.788	3.7156
336.003	4.39996
336.217	4.12992
336.431	3.65225
336.645	2.48229
336.859	1.81381
337.073	2.98159
337.287	3.00528
337.501	1.74715
337.715	3.27528
337.929	3.56693
338.143	1.53507
338.357	2.79966
338.571	1.86304
338.785	3.5536
338.999	2.25992
339.213	2.29271
339.427	1.29969
339.641	4.39477
339.855	2.48804
340.069	2.13139
340.283	4.07634
340.497	4.98609
340.711	3.40452
340.924	2.41262
341.138	1.71362
341.352	1.38621
341.566	3.13663
341.78	0.66185
341.993	2.07072
342.207	1.67523
342.421	3.04447
342.635	2.79927
342.848	2.06243
343.062	0.27794
343.276	2.01627
343.49	5.40361
343.703	2.10243
343.917	3.77638
344.131	3.75154
344.344	2.05836
344.558	2.17894
344.771	1.68829
344.985	4.03467
345.199	4.65827
345.412	3.08891
345.626	3.16069
345.839	0.84423
346.053	1.4834
346.266	1.59786
346.48	3.61759
346.693	3.00787
346.907	3.2557
347.12	1.7982
347.334	2.98422
347.547	3.21639
347.76	2.3731
347.974	4.04321
348.187	3.08306
348.401	2.38592
348.614	2.10884
348.827	2.25669
349.041	3.31554
349.254	0.84959
349.467	2.50873
349.681	1.40387
349.894	2.11951
350.107	3.99211
350.32	4.6577
350.534	0.99504
350.747	2.26448
350.96	1.56237
351.173	1.80196
351.386	2.18257
351.6	2.0843
351.813	1.84377
352.026	2.55008
352.239	1.18464
352.452	2.15644
352.665	3.62977
352.878	2.22465
353.092	5.02731
353.305	3.33134
353.518	2.81086
353.731	1.8079
353.944	3.72551
354.157	1.84026
354.37	1.54741
354.583	1.38648
354.796	0.63936
355.009	3.74585
355.222	2.44204
355.435	2.47027
355.647	3.63758
355.86	1.32428
356.073	2.31515
356.286	1.94099
356.499	3.22483
356.712	2.87565
356.925	2.65848
357.138	3.43409
357.35	1.34538
357.563	1.99143
357.776	2.47917
357.989	1.99945
358.201	2.93338
358.414	2.48148
358.627	3.50342
358.84	1.97154
359.052	1.15887
359.265	1.16569
359.478	3.37044
359.69	-0.4324
359.903	3.01068
360.116	3.08141
360.328	0.62648
360.541	3.00616
360.753	1.15393
360.966	1.65262
361.179	1.67152
361.391	1.56935
361.604	1.17721
361.816	1.60453
362.029	1.37286
362.241	1.21766
362.454	1.51427
362.666	1.1859
362.879	2.04401
363.091	1.74703
363.304	1.26061
363.516	2.04127
363.728	0.91772
363.941	2.666
364.153	1.43989
364.366	-0.1467
364.578	0.9926
364.79	2.51425
365.003	1.99669
365.215	1.60985
365.427	2.54332
365.639	3.37299
365.852	2.28335
366.064	3.78055
366.276	1.4765
366.488	2.58695
366.701	1.63213
366.913	1.89378
367.125	1.96091
367.337	1.42499
367.549	1.58943
367.762	2.24228
367.974	2.12297
368.186	1.40584
368.398	3.01053
368.61	2.54137
368.822	2.7381
369.034	2.03625
369.246	2.59479
369.458	4.34348
369.67	1.0714
369.882	3.99323
370.094	0.14509
370.306	3.67785
370.518	1.57332
370.73	1.48051
370.942	1.22428
371.154	1.72212
371.366	1.39367
371.578	2.20445
371.79	1.21312
372.002	3.22365
372.214	3.61837
372.425	2.2736
372.637	3.44716
372.849	2.30902
373.061	-0.03089
373.273	2.57614
373.484	2.5621
373.696	2.85561
373.908	-0.10828
374.12	3.07963
374.331	2.36415
374.543	1.21777
374.755	1.11952
374.967	2.19831
375.178	2.70862
375.39	1.74953
375.602	2.14968
375.813	0.70782
376.025	0.74598
376.236	1.79281
376.448	2.02572
376.66	1.47521
376.871	1.42827
377.083	2.77777
377.294	2.81986
377.506	1.43419
377.717	3.16562
377.929	2.05952
378.14	1.10167
378.352	2.40698
378.563	2.31557
378.775	3.15173
378.986	1.23327
379.197	1.97484
379.409	1.4484
379.62	2.68527
379.832	2.12646
380.043	1.5955
380.254	2.06809
380.466	0.72693
380.677	4.42113
380.888	4.12664
381.1	4.39134
381.311	4.21867
381.522	1.80903
381.733	4.84086
381.945	1.66932
382.156	2.18116
382.367	1.45495
382.578	4.60299
382.789	4.48712
383.001	1.51595
383.212	3.16359
383.423	3.39489
383.634	2.99327
383.845	2.25475
384.056	1.53029
384.267	1.80312
384.478	1.79384
384.69	0.878
384.901	2.43642
385.112	2.24966
385.323	3.47612
385.534	2.28015
385.745	2.11082
385.956	2.31571
386.167	0.85656
386.378	2.37987
386.588	0.76383
386.799	1.13287
387.01	0.34869
387.221	2.70413
387.432	1.67818
387.643	3.79956
387.854	1.66175
388.065	1.5262
388.275	1.66368
388.486	1.46398
388.697	1.72458
388.908	1.58077
389.119	2.94374
389.329	3.62772
389.54	1.9212
389.751	2.12151
389.962	3.0021
390.172	2.10461
390.383	1.31426
390.594	1.24577
390.804	1.17515
391.015	1.29943
391.226	1.86513
391.436	2.38108
391.647	2.07371
391.858	2.50762
392.068	0.28715
392.279	0.68704
392.489	1.79566
392.7	2.79714
392.91	0.79012
393.121	1.12977
393.331	2.20352
393.542	2.85692
393.752	2.31996
393.963	1.90995
394.173	1.82309
394.384	2.46881
394.594	1.75448
394.804	0.75053
395.015	1.98626
395.225	2.45538
395.436	0.85569
395.646	2.3715
395.856	1.1403
396.067	0.77125
396.277	2.85089
396.487	2.22303
396.697	1.84808
396.908	2.53786
397.118	2.6222
397.328	2.08462
397.538	2.80236
397.749	1.297
397.959	2.75953
398.169	2.56606
398.379	0.79532
398.589	2.68602
398.8	2.03103
399.01	1.93845
399.22	1.59975
399.43	4.03398
399.64	1.61967
399.85	2.54376
400.06	1.87311
400.27	1.55952
400.48	1.9798
400.69	3.37203
400.9	1.59039
401.11	1.44848
401.32	2.89446
401.53	1.59357
401.74	3.47108
401.95	2.70014
402.16	1.17077
402.37	2.54616
402.58	1.53811
402.79	2.70492
403	2.8523
403.209	1.55731
403.419	2.70145
403.629	1.6019
403.839	2.64644
404.049	2.79115
404.258	1.32085
404.468	1.13216
404.678	2.50865
404.888	2.6369
405.097	1.1532
405.307	1.95317
405.517	2.49325
405.727	2.30288
405.936	1.66992
406.146	2.26125
406.356	3.2755
406.565	2.12598
406.775	1.72449
406.984	1.70641
407.194	3.73539
407.404	2.24759
407.613	2.47109
407.823	2.90234
408.032	3.34022
408.242	3.17401
408.451	1.76561
408.661	2.1569
408.87	3.87739
409.08	1.9132
409.289	2.61531
409.499	2.352
409.708	2.34326
409.918	0.67815
410.127	2.32518
410.336	3.62603
410.546	2.88106
410.755	2.09166
410.964	1.92764
411.174	1.78121
411.383	2.84592
411.592	2.86201
411.802	1.54804
412.011	3.33527
412.22	2.43925
412.429	3.81499
412.639	3.62463
412.848	3.74624
413.057	3.95176
413.266	3.51054
413.475	2.54303
413.685	3.24722
413.894	3.29806
414.103	3.62146
414.312	3.10072
414.521	2.50785
414.73	2.8007
414.939	4.18219
415.148	3.04252
415.357	2.82562
415.566	2.2474
415.776	2.22809
415.985	2.10361
416.194	3.25249
416.403	3.80581
416.611	1.43649
416.82	1.96436
417.029	2.44608
417.238	1.81767
417.447	1.69229
417.656	1.968
417.865	1.802
418.074	2.0048
418.283	2.19468
418.492	2.83921
418.7	2.73715
418.909	3.32335
419.118	2.34202
419.327	2.52138
419.536	2.36005
419.744	1.82855
419.953	2.87734
420.162	2.84734
420.371	1.8074
420.579	1.71157
420.788	2.78601
420.997	2.74029
421.205	2.91869
421.414	2.48954
421.623	2.46695
421.831	2.06852
422.04	2.94624
422.249	2.084
422.457	2.68994
422.666	2.10772
422.874	3.10033
423.083	3.0502
423.291	2.97508
423.5	2.63293
423.708	2.85966
423.917	3.25274
424.125	2.72704
424.334	2.44201
424.542	4.28657
424.751	3.46824
424.959	3.31291
425.167	3.56827
425.376	3.53704
425.584	2.75758
425.793	3.15611
