Data from WindowProjectSample3_Transmission__7__00007.txt Node

Date: Sun May 04 09:46:31 EDT 2025
User: jessi
Spectrometer: SR400872
Trigger mode: 0
Integration Time (sec): 5.000070E-1
Scans to average: 10
Electric dark correction enabled: true
Nonlinearity correction enabled: true
Boxcar width: 0
XAxis mode: Wavelengths
Number of Pixels in Spectrum: 3648
>>>>>Begin Spectral Data<<<<<
184.909	-5795.23349
185.132	10735.3221
185.355	-8329.76845
185.578	-54534.26974
185.801	3140.04796
186.024	-139380.67081
186.247	-743.41677
186.47	1420.10332
186.693	1126.07029
186.916	-526.28933
187.139	-2494824.5903
187.362	-2834.2675
187.585	8674.0769
187.808	1911.3694
188.031	21.92235
188.254	4216.46899
188.476	-1550.78697
188.699	2450.32199
188.922	494.59876
189.145	-6020.44781
189.368	-4182.94146
189.591	1444.11797
189.813	-149553.55604
190.036	9144.69232
190.259	1429.67729
190.482	5617.59059
190.705	16728.75199
190.927	18068.60274
191.15	-4201.55615
191.373	2103.51955
191.595	1448.4048
191.818	16705.54062
192.041	795.80827
192.263	-7448.75126
192.486	-1796.84433
192.709	2769.17352
192.931	-3285.03896
193.154	13560.64476
193.377	2487.93781
193.599	27810.74762
193.822	2099.54748
194.044	2044.42415
194.267	1065.45772
194.489	-150.59402
194.712	3726.89622
194.934	33147.98921
195.157	-630.24889
195.379	10938.63394
195.602	1859.24434
195.824	4475.89581
196.047	6091.55292
196.269	13669.86592
196.492	-11095.39715
196.714	3817.53211
196.936	6896.59683
197.159	10695.02989
197.381	4428.07985
197.604	1833734.74852
197.826	1938.9298
198.048	1998.87471
198.271	9340.00405
198.493	1984.96061
198.715	2676.77803
198.938	8486.17034
199.16	3527.254
199.382	9847.24819
199.604	10105.39749
199.827	1675.54088
200.049	3070.03528
200.271	20285.75356
200.493	1752.21122
200.715	7176.42542
200.938	7966.98947
201.16	-3812.23988
201.382	31263.22499
201.604	3920.83491
201.826	8277.70665
202.048	4346.89671
202.27	1847.69922
202.492	5817.22878
202.715	18468.82188
202.937	3834.06947
203.159	1552.19134
203.381	1922.67552
203.603	2608.16729
203.825	-1535.94305
204.047	-22037.03531
204.269	3446.69911
204.491	6825.74331
204.713	-1665923.16197
204.935	2180.69087
205.156	3980.91156
205.378	1569.84734
205.6	35958.38707
205.822	4839.03417
206.044	3789.77966
206.266	5981.13635
206.488	1468.96723
206.71	8839.35908
206.932	1352.86839
207.153	29215.75682
207.375	15662.48054
207.597	12216.94517
207.819	36176.72182
208.041	-43518.72704
208.262	1132.83786
208.484	13878.5161
208.706	4047.32648
208.927	2358.7072
209.149	923.28977
209.371	3761.87552
209.593	969.69946
209.814	9903.72439
210.036	-490855.66173
210.258	1609.91236
210.479	2094.99223
210.701	3459.26686
210.922	-5532.64413
211.144	-3306.19469
211.366	5215.14076
211.587	2295.9307
211.809	5295.96235
212.03	-63672.13236
212.252	384.0717
212.473	781.92866
212.695	749.54671
212.916	1238.74764
213.138	598.81675
213.359	5028.77776
213.581	2804.93644
213.802	894.61149
214.024	7249.3774
214.245	-12739.10123
214.466	396.81573
214.688	3753.08843
214.909	9980.65342
215.131	4178.61393
215.352	2638.7311
215.573	11483.8532
215.795	2089.34676
216.016	1841.17882
216.237	-714920.89763
216.459	1871.89484
216.68	5781.15488
216.901	3213.8302
217.122	733.52319
217.344	3051.07523
217.565	7108.13032
217.786	3469.96126
218.007	896.45844
218.228	2235.80414
218.45	-16626.80349
218.671	39651.72711
218.892	19934.52159
219.113	1604.82359
219.334	8084.73289
219.555	-8560.75465
219.776	1779.17519
219.997	4040.97773
220.219	1123.62105
220.44	1469.86375
220.661	1563.2153
220.882	5300.52416
221.103	1335.52507
221.324	8055.34913
221.545	3082.37558
221.766	2967.97822
221.987	1536.48528
222.208	971.98709
222.429	2204.90634
222.65	90.58976
222.87	795.35121
223.091	1703.06354
223.312	957.22953
223.533	2051.05067
223.754	1593.19436
223.975	1709.03427
224.196	968.9965
224.417	5184.34737
224.637	608.52944
224.858	80.8686
225.079	1101.5041
225.3	601.36496
225.521	2247.90226
225.741	616.1272
225.962	602.41682
226.183	163.21463
226.404	987.86049
226.624	559.58802
226.845	603.08767
227.066	462.60815
227.286	310.74117
227.507	192.53577
227.728	148.334
227.948	272.10055
228.169	93.56823
228.389	102.56213
228.61	57.01474
228.831	82.17503
229.051	6.64178
229.272	48.2036
229.492	71.99899
229.713	20.67468
229.933	51.42595
230.154	44.92218
230.374	76.3979
230.595	56.97576
230.815	32.21354
231.036	57.10058
231.256	-11.72661
231.477	98.83548
231.697	56.75589
231.917	54.94479
232.138	84.47889
232.358	155.73327
232.579	148.673
232.799	22.92571
233.019	128.97085
233.24	159.0863
233.46	56.64554
233.68	83.46493
233.901	60.09199
234.121	38.73346
234.341	20.34379
234.561	-2.36985
234.782	29.5515
235.002	100.42706
235.222	0.03502
235.442	87.1624
235.662	42.96572
235.883	88.78875
236.103	72.01189
236.323	51.58808
236.543	40.60467
236.763	57.4285
236.983	63.13734
237.203	59.26126
237.423	87.0785
237.643	128.35107
237.864	107.69563
238.084	30.67314
238.304	38.93144
238.524	67.80066
238.744	55.40436
238.964	96.50552
239.184	89.03398
239.404	91.38527
239.624	50.05419
239.843	82.63635
240.063	49.22127
240.283	34.09899
240.503	37.9271
240.723	33.60147
240.943	21.35838
241.163	26.86201
241.383	15.10868
241.603	9.07405
241.822	13.18978
242.042	8.9956
242.262	11.80225
242.482	12.96377
242.702	16.06344
242.921	5.20925
243.141	10.97077
243.361	9.85946
243.581	14.58804
243.8	11.21766
244.02	8.03123
244.24	15.03912
244.459	13.5588
244.679	29.06317
244.899	17.94165
245.118	19.60623
245.338	18.51286
245.558	20.64256
245.777	13.7085
245.997	14.26056
246.216	14.29981
246.436	8.90907
246.655	6.06345
246.875	3.86402
247.094	8.45779
247.314	3.12743
247.533	5.03695
247.753	6.14783
247.972	5.21478
248.192	1.86215
248.411	3.14679
248.631	5.458
248.85	7.18737
249.07	6.35628
249.289	9.47731
249.508	6.72653
249.728	11.45821
249.947	11.59605
250.166	13.83665
250.386	6.99954
250.605	9.72292
250.824	16.70681
251.044	11.93775
251.263	36.28285
251.482	20.80051
251.701	16.62673
251.921	-0.78063
252.14	5.26372
252.359	6.43527
252.578	14.1598
252.798	5.03851
253.017	13.51303
253.236	7.00115
253.455	9.48829
253.674	17.87567
253.893	8.23234
254.112	12.42038
254.331	18.25763
254.551	15.15986
254.77	6.98437
254.989	19.40804
255.208	15.78983
255.427	21.48133
255.646	19.2797
255.865	30.22812
256.084	12.80781
256.303	16.02432
256.522	20.00722
256.741	3.8103
256.96	4.57264
257.179	12.27398
257.397	15.66291
257.616	8.59879
257.835	8.50943
258.054	21.66324
258.273	14.24359
258.492	15.8081
258.711	9.18926
258.93	3.88459
259.148	5.95463
259.367	6.28516
259.586	7.59662
259.805	3.17674
260.023	7.04303
260.242	5.24534
260.461	3.90426
260.68	2.09734
260.898	6.44602
261.117	2.10947
261.336	1.29894
261.554	5.72824
261.773	5.59511
261.992	1.42061
262.21	5.71509
262.429	6.85401
262.648	10.43825
262.866	12.31177
263.085	8.05137
263.303	7.94348
263.522	13.18344
263.74	13.67277
263.959	22.58568
264.178	11.50242
264.396	9.95354
264.615	7.69756
264.833	17.0379
265.051	14.51974
265.27	15.19965
265.488	15.97374
265.707	8.96979
265.925	15.42275
266.144	7.10949
266.362	8.28777
266.58	8.79304
266.799	7.20089
267.017	8.58687
267.235	7.28058
267.454	5.16331
267.672	2.66988
267.89	6.69597
268.109	6.88508
268.327	6.60719
268.545	1.41365
268.763	6.11906
268.982	2.56345
269.2	6.79434
269.418	4.44329
269.636	3.6935
269.854	7.36147
270.073	4.86123
270.291	2.68665
270.509	3.17275
270.727	6.44832
270.945	10.64186
271.163	10.44343
271.381	2.55751
271.599	4.43136
271.817	7.77114
272.036	2.63912
272.254	4.6506
272.472	3.59783
272.69	3.71118
272.908	3.83934
273.126	6.18323
273.344	7.76593
273.562	3.03733
273.779	3.84191
273.997	6.01692
274.215	6.41617
274.433	4.7178
274.651	6.81733
274.869	6.96491
275.087	4.67614
275.305	6.10557
275.523	3.82599
275.74	4.40475
275.958	7.69207
276.176	12.07175
276.394	3.77769
276.612	5.14435
276.829	4.82291
277.047	4.2665
277.265	4.69627
277.483	5.54333
277.7	6.50624
277.918	5.22031
278.136	9.46578
278.353	4.87954
278.571	2.80214
278.789	6.94631
279.006	1.45118
279.224	3.93936
279.442	7.48732
279.659	5.43079
279.877	3.84582
280.094	8.29661
280.312	1.92596
280.529	5.13053
280.747	1.67265
280.964	4.12021
281.182	8.62167
281.399	4.48473
281.617	5.55079
281.834	3.58863
282.052	3.02989
282.269	4.66837
282.487	3.73497
282.704	3.19601
282.921	3.43604
283.139	4.76819
283.356	6.20875
283.574	5.45286
283.791	3.05679
284.008	8.00643
284.226	4.30797
284.443	5.03229
284.66	6.24978
284.877	4.93314
285.095	2.92684
285.312	2.32124
285.529	1.57691
285.746	1.2544
285.964	3.14519
286.181	1.9902
286.398	3.0363
286.615	4.14571
286.832	3.82184
287.05	1.10008
287.267	2.89595
287.484	2.80709
287.701	4.22414
287.918	3.8602
288.135	4.09023
288.352	1.79829
288.569	2.31311
288.786	3.50203
289.003	3.05237
289.22	4.25184
289.437	2.70526
289.654	4.4482
289.871	4.23583
290.088	4.39385
290.305	3.44389
290.522	2.62259
290.739	3.09426
290.956	4.77409
291.173	5.40754
291.39	5.16376
291.607	3.53573
291.824	2.89081
292.04	2.05648
292.257	4.47604
292.474	4.94933
292.691	3.15961
292.908	1.46782
293.125	2.6042
293.341	1.93027
293.558	7.62472
293.775	3.19972
293.992	3.15685
294.208	1.34943
294.425	2.03653
294.642	2.77948
294.858	3.94757
295.075	1.24124
295.292	2.88563
295.508	3.64468
295.725	5.22455
295.942	2.35044
296.158	1.6526
296.375	3.04369
296.591	2.31002
296.808	2.51349
297.024	2.77757
297.241	3.29239
297.458	3.3415
297.674	0.29548
297.891	2.73426
298.107	2.02874
298.323	1.59686
298.54	4.23076
298.756	2.04286
298.973	0.79187
299.189	4.39865
299.406	1.75935
299.622	4.2955
299.838	4.26844
300.055	3.89133
300.271	0.73741
300.487	1.55609
300.704	1.78301
300.92	0.94794
301.136	5.64424
301.353	4.48529
301.569	3.05304
301.785	3.42258
302.001	4.03592
302.218	3.44127
302.434	3.40186
302.65	1.11837
302.866	2.23812
303.083	5.73987
303.299	5.39351
303.515	2.70871
303.731	3.02693
303.947	0.98996
304.163	1.94264
304.379	3.06625
304.595	3.58377
304.812	1.90225
305.028	1.90179
305.244	2.46185
305.46	4.15388
305.676	3.8423
305.892	4.81026
306.108	3.22797
306.324	2.38941
306.54	5.44474
306.756	3.77509
306.972	3.51108
307.187	2.46008
307.403	5.04557
307.619	2.29963
307.835	4.45248
308.051	4.88681
308.267	1.21544
308.483	4.09887
308.699	3.62094
308.914	3.02904
309.13	2.9735
309.346	0.90816
309.562	1.40105
309.778	0.78998
309.993	3.63582
310.209	2.60044
310.425	1.16401
310.641	2.36404
310.856	1.42043
311.072	1.50406
311.288	2.79072
311.503	2.96618
311.719	0.69784
311.935	0.47115
312.15	3.12075
312.366	2.69663
312.581	3.42169
312.797	2.63058
313.013	3.72157
313.228	1.86566
313.444	2.82603
313.659	1.79453
313.875	3.496
314.09	2.55422
314.306	4.56478
314.521	3.99659
314.737	3.68637
314.952	3.20822
315.168	2.82244
315.383	3.42608
315.599	2.70386
315.814	2.43549
316.029	3.78846
316.245	1.01703
316.46	1.01608
316.675	4.74279
316.891	5.47421
317.106	7.02994
317.321	3.7318
317.537	3.56702
317.752	3.67199
317.967	3.83137
318.183	1.99752
318.398	2.70853
318.613	4.39515
318.828	4.76168
319.043	4.26335
319.259	2.61167
319.474	3.4349
319.689	4.65352
319.904	0.50962
320.119	4.03517
320.334	3.24917
320.549	3.27297
320.765	4.70681
320.98	3.31572
321.195	4.06591
321.41	2.69654
321.625	4.09327
321.84	5.60979
322.055	5.36186
322.27	2.01412
322.485	1.85409
322.7	3.55594
322.915	4.76016
323.13	1.71725
323.345	4.82799
323.56	3.59035
323.775	3.63564
323.989	3.83571
324.204	3.41962
324.419	4.05183
324.634	1.35568
324.849	2.77322
325.064	5.99613
325.279	4.11974
325.493	3.74004
325.708	4.57501
325.923	2.12451
326.138	1.86634
326.352	5.28066
326.567	4.30329
326.782	2.48005
326.997	1.90968
327.211	4.21296
327.426	3.83297
327.641	2.37
327.855	1.06408
328.07	3.51504
328.285	5.2684
328.499	2.7161
328.714	3.59263
328.928	3.96101
329.143	3.15178
329.358	4.3961
329.572	4.69314
329.787	4.61052
330.001	6.49969
330.216	1.275
330.43	5.07629
330.645	5.37207
330.859	4.13504
331.074	2.17207
331.288	3.4903
331.503	4.79859
331.717	1.87139
331.931	2.9696
332.146	3.11287
332.36	5.61406
332.575	3.82075
332.789	3.47502
333.003	2.86469
333.218	3.76756
333.432	2.11375
333.646	4.14181
333.86	4.98282
334.075	5.28922
334.289	2.2054
334.503	1.9606
334.717	3.70392
334.932	3.39751
335.146	4.86818
335.36	2.91042
335.574	4.29037
335.788	4.15438
336.003	4.93928
336.217	4.07217
336.431	4.24818
336.645	2.25823
336.859	1.57863
337.073	2.54666
337.287	3.07248
337.501	1.66707
337.715	3.09105
337.929	3.74832
338.143	1.63234
338.357	2.87377
338.571	1.71673
338.785	3.42344
338.999	2.6483
339.213	2.36002
339.427	1.24123
339.641	4.63036
339.855	2.79915
340.069	2.23945
340.283	4.68421
340.497	5.49872
340.711	3.41636
340.924	2.46159
341.138	1.72878
341.352	1.21148
341.566	3.2811
341.78	0.80503
341.993	2.30315
342.207	1.54534
342.421	3.38036
342.635	2.80246
342.848	2.00459
343.062	0.44563
343.276	2.12769
343.49	5.8158
343.703	2.19357
343.917	3.94382
344.131	3.95193
344.344	2.09299
344.558	2.2553
344.771	1.78058
344.985	4.61699
345.199	4.66722
345.412	3.20725
345.626	3.08903
345.839	0.88372
346.053	1.38996
346.266	1.5703
346.48	3.87303
346.693	3.23946
346.907	3.66672
347.12	1.71485
347.334	3.30041
347.547	3.29974
347.76	2.49296
347.974	4.6762
348.187	3.32495
348.401	2.24845
348.614	2.0697
348.827	2.39086
349.041	3.69808
349.254	0.88153
349.467	2.5772
349.681	1.46003
349.894	2.30597
350.107	4.28884
350.32	4.6561
350.534	0.97009
350.747	2.32994
350.96	1.82916
351.173	2.01863
351.386	2.23652
351.6	2.52957
351.813	1.82924
352.026	2.90275
352.239	1.06409
352.452	2.51445
352.665	3.78535
352.878	2.40715
353.092	5.59869
353.305	3.40887
353.518	2.9266
353.731	1.78144
353.944	3.93928
354.157	1.96013
354.37	1.65582
354.583	1.34458
354.796	0.7464
355.009	4.32466
355.222	2.72081
355.435	2.62873
355.647	3.90079
355.86	1.5191
356.073	2.51508
356.286	2.09885
356.499	3.48411
356.712	2.83517
356.925	2.97828
357.138	3.68323
357.35	1.31715
357.563	2.16615
357.776	2.52349
357.989	1.97583
358.201	3.10464
358.414	2.64065
358.627	3.85021
358.84	2.19093
359.052	1.27979
359.265	1.18855
359.478	3.69862
359.69	-0.39109
359.903	3.05976
360.116	3.13997
360.328	0.5856
360.541	3.19119
360.753	1.25293
360.966	1.63396
361.179	1.74271
361.391	1.60565
361.604	1.22781
361.816	1.65906
362.029	1.50919
362.241	1.1245
362.454	1.52845
362.666	1.1972
362.879	2.13146
363.091	1.9621
363.304	1.38354
363.516	2.16671
363.728	0.87247
363.941	2.91536
364.153	1.55287
364.366	-0.00936
364.578	1.00035
364.79	2.71127
365.003	1.96997
365.215	1.79049
365.427	2.45818
365.639	3.5689
365.852	2.4351
366.064	4.35228
366.276	1.54264
366.488	2.82359
366.701	1.72434
366.913	2.11267
367.125	1.50028
367.337	1.6804
367.549	1.81503
367.762	2.3401
367.974	2.29051
368.186	1.30613
368.398	3.34638
368.61	2.95868
368.822	2.91625
369.034	2.35037
369.246	2.84588
369.458	4.82061
369.67	1.12456
369.882	4.32822
370.094	0.31589
370.306	3.97021
370.518	1.75171
370.73	1.46514
370.942	1.26339
371.154	1.70765
371.366	1.50208
371.578	2.52428
371.79	1.19428
372.002	3.59871
372.214	4.03917
372.425	2.51491
372.637	3.55659
372.849	2.37377
373.061	0.04102
373.273	2.62136
373.484	2.63049
373.696	3.08936
373.908	-0.09294
374.12	3.27289
374.331	2.59181
374.543	1.10249
374.755	0.91977
374.967	2.23911
375.178	2.83188
375.39	1.79907
375.602	2.14987
375.813	0.7762
376.025	0.78241
376.236	2.17173
376.448	2.17391
376.66	1.42898
376.871	1.39112
377.083	3.13654
377.294	3.14008
377.506	1.34179
377.717	3.26702
377.929	2.17931
378.14	1.03565
378.352	2.70157
378.563	2.33386
378.775	3.32846
378.986	1.34644
379.197	2.14093
379.409	1.68723
379.62	2.92224
379.832	2.33927
380.043	1.66019
380.254	2.18739
380.466	0.79193
380.677	4.94157
380.888	4.50639
381.1	4.6585
381.311	4.35037
381.522	1.80916
381.733	5.29232
381.945	1.53838
382.156	2.41153
382.367	1.59856
382.578	4.9589
382.789	4.87318
383.001	1.71689
383.212	3.23469
383.423	3.51287
383.634	3.55932
383.845	2.39317
384.056	1.67315
384.267	2.0758
384.478	1.69822
384.69	0.84926
384.901	2.56577
385.112	2.38285
385.323	3.48723
385.534	2.60244
385.745	2.25396
385.956	2.44532
386.167	1.01388
386.378	2.4071
386.588	0.57324
386.799	1.0699
387.01	0.21791
387.221	2.9067
387.432	1.71086
387.643	4.08121
387.854	1.75086
388.065	1.62239
388.275	1.81463
388.486	1.77733
388.697	1.82237
388.908	1.71704
389.119	3.08385
389.329	3.8235
389.54	2.10668
389.751	2.3002
389.962	3.19895
390.172	2.20079
390.383	1.32716
390.594	1.23712
390.804	1.26734
391.015	1.35691
391.226	1.99434
391.436	2.38701
391.647	2.25038
391.858	2.58082
392.068	0.3378
392.279	0.72992
392.489	1.90184
392.7	2.93511
392.91	0.58445
393.121	1.15519
393.331	2.36811
393.542	3.12217
393.752	1.99255
393.963	1.90678
394.173	1.90931
394.384	2.50777
394.594	1.76598
394.804	0.72413
395.015	2.13709
395.225	2.48002
395.436	0.87576
395.646	2.52419
395.856	1.07852
396.067	0.71891
396.277	3.05766
396.487	2.31755
396.697	1.90933
396.908	2.63475
397.118	2.70228
397.328	2.22251
397.538	2.96289
397.749	1.10129
397.959	2.83608
398.169	2.71755
398.379	0.62252
398.589	2.7635
398.8	2.02135
399.01	1.70491
399.22	1.75526
399.43	4.37051
399.64	1.7981
399.85	2.66104
400.06	1.9306
400.27	1.1808
400.48	2.13711
400.69	3.65539
400.9	1.63604
401.11	1.40062
401.32	3.11801
401.53	1.61295
401.74	3.89051
401.95	3.12314
402.16	1.13053
402.37	2.69226
402.58	1.59733
402.79	2.71193
403	3.07236
403.209	1.51564
403.419	2.92763
403.629	1.6517
403.839	2.86313
404.049	2.86802
404.258	1.48373
404.468	1.30533
404.678	2.60198
404.888	2.86407
405.097	1.26033
405.307	2.13331
405.517	2.57345
405.727	2.56843
405.936	1.77797
406.146	2.41222
406.356	3.60462
406.565	2.36941
406.775	1.81239
406.984	1.83605
407.194	4.13794
407.404	2.59789
407.613	2.77511
407.823	3.25367
408.032	3.62372
408.242	3.58438
408.451	2.07198
408.661	2.41524
408.87	4.22331
409.08	2.06559
409.289	2.94925
409.499	2.72923
409.708	2.5793
409.918	0.57415
410.127	2.68367
410.336	4.13965
410.546	3.32334
410.755	2.17108
410.964	2.23798
411.174	1.92811
411.383	3.15074
411.592	3.25868
411.802	1.80237
412.011	3.65707
412.22	2.95245
412.429	4.36294
412.639	4.17929
412.848	4.05347
413.057	4.44693
413.266	4.0969
413.475	2.94312
413.685	3.63628
413.894	3.69411
414.103	4.16491
414.312	3.66538
414.521	2.98149
414.73	3.10502
414.939	4.94889
415.148	3.50463
415.357	3.4047
415.566	2.83133
415.776	2.64876
415.985	2.64923
416.194	3.91339
416.403	4.80648
416.611	1.9697
416.82	2.57481
417.029	3.24637
417.238	2.54
417.447	2.35574
417.656	2.75571
417.865	2.49386
418.074	2.835
418.283	3.15525
418.492	3.90876
418.7	3.80707
418.909	4.52026
419.118	3.29614
419.327	3.58459
419.536	3.36466
419.744	2.84935
419.953	4.16153
420.162	4.00474
420.371	2.94642
420.579	2.93756
420.788	4.08331
420.997	4.13237
421.205	4.04628
421.414	3.87175
421.623	3.97604
421.831	3.45962
422.04	4.26548
422.249	3.30317
422.457	3.96552
422.666	3.37129
422.874	4.34553
423.083	4.39704
423.291	4.30259
423.5	3.9957
423.708	4.2726
423.917	4.77978
424.125	4.11262
424.334	3.89171
424.542	5.92803
424.751	4.9803
424.959	4.66184
425.167	5.22192
425.376	4.89999
425.584	4.11742
425.793	4.5421
426.001	3.43772
426.209	4.90439
426.418	3.6871
426.626	3.78287
426.834	3.58367
427.042	4.20851
