Data from WindowProjectSample2_Transmission__0__00005.txt Node

Date: Sat May 03 22:18:19 EDT 2025
User: jessi
Spectrometer: SR400872
Trigger mode: 0
Integration Time (sec): 5.000010E-1
Scans to average: 10
Electric dark correction enabled: true
Nonlinearity correction enabled: true
Boxcar width: 0
XAxis mode: Wavelengths
Number of Pixels in Spectrum: 3648
>>>>>Begin Spectral Data<<<<<
184.909	-6227.27457
185.132	7802.26688
185.355	18420.78022
185.578	8479.50873
185.801	-1229.42411
186.024	-2114.2858
186.247	-3979.43181
186.47	-2261.00046
186.693	-97.65648
186.916	-130.5619
187.139	-4416.4156
187.362	-14027.06309
187.585	1844.02759
187.808	-3284.43942
188.031	199.64408
188.254	3119.83363
188.476	-3935.74849
188.699	-38938.62238
188.922	3473.86822
189.145	-7526.8656
189.368	1179.39346
189.591	1284.25562
189.813	1338.3625
190.036	-3839.47636
190.259	2060.1962
190.482	9616.14545
190.705	3333.34239
190.927	11846.14679
191.15	5601.44908
191.373	1765.2913
191.595	5018.9742
191.818	3013.39898
192.041	590.66638
192.263	2745.6793
192.486	-1669.09751
192.709	-11408.86251
192.931	5669.50406
193.154	-15598.57584
193.377	5963.08648
193.599	11895.52645
193.822	-1476.38472
194.044	974.5294
194.267	1195.79595
194.489	50.87612
194.712	-6334.41354
194.934	4774.86663
195.157	-3222.78198
195.379	934.56435
195.602	1796.9622
195.824	10160.28064
196.047	4321.74417
196.269	-10550.42617
196.492	-11858.82184
196.714	-4384.29575
196.936	-4391.8771
197.159	6218.55196
197.381	-685.80031
197.604	2672.04816
197.826	-14602.93145
198.048	3659.89606
198.271	2200.41317
198.493	1668.94983
198.715	2494.88956
198.938	-3527.95338
199.16	2322.53371
199.382	3237.23208
199.604	3953.11233
199.827	-1301.75134
200.049	-2109.33817
200.271	3528.41879
200.493	-3141.46552
200.715	8268.55431
200.938	3239.05622
201.16	-6690.33182
201.382	-169452.32212
201.604	-8061.88457
201.826	2342.7364
202.048	22892.65245
202.27	18064.07144
202.492	4755.86622
202.715	-6411.19197
202.937	-6011.88
203.159	-45178.71084
203.381	2132.31536
203.603	4002.0819
203.825	-1777.66034
204.047	4312.53949
204.269	12411.97288
204.491	1669.49252
204.713	9574.21676
204.935	6765.14615
205.156	-9568.79968
205.378	960.92772
205.6	3104.55432
205.822	5027.65192
206.044	1796.22064
206.266	4827.78013
206.488	2676.82336
206.71	15675.18393
206.932	-11510.89331
207.153	-4545.63999
207.375	5828.22311
207.597	9095.59116
207.819	2862.36117
208.041	26490.94196
208.262	-1635.50466
208.484	-5089.28216
208.706	1196.23405
208.927	4402.6078
209.149	2339.29437
209.371	4439.09144
209.593	424.20096
209.814	3575.47785
210.036	2657.69505
210.258	1491.67776
210.479	777.72429
210.701	1481.46712
210.922	-9580.18049
211.144	3647.7279
211.366	1769.30586
211.587	1639.98915
211.809	9253.22873
212.03	3496.991
212.252	3524.55876
212.473	6078.4731
212.695	1783.33842
212.916	3932.47242
213.138	1413.15064
213.359	-4707.69518
213.581	1710.13238
213.802	1135.90642
214.024	-12104.58375
214.245	-4153.69326
214.466	1131.82078
214.688	2817.94439
214.909	3368.56087
215.131	-12543.97465
215.352	2400.28875
215.573	14349.67268
215.795	1935.91857
216.016	3470.26653
216.237	-1342.06597
216.459	2611.86924
216.68	-15200.28149
216.901	3234.55515
217.122	-9796.62467
217.344	-2014.62564
217.565	-56753.79881
217.786	-101929.27776
218.007	567.02693
218.228	787.97552
218.45	17188.02687
218.671	577.41912
218.892	1816.05119
219.113	1220.00373
219.334	-1347.24813
219.555	3698.24593
219.776	6192.64738
219.997	4919.86513
220.219	5181.13185
220.44	1240.37262
220.661	-10829.54663
220.882	6034.77947
221.103	-11964.47673
221.324	1375.67629
221.545	3074.2212
221.766	2395.74048
221.987	1978.5061
222.208	749.21595
222.429	1655.41405
222.65	291.15469
222.87	761.50844
223.091	2721.587
223.312	2172.55812
223.533	1094.49961
223.754	7192.41266
223.975	6533.24251
224.196	989.67987
224.417	-24202.93316
224.637	712.84609
224.858	129.76488
225.079	10310.03239
225.3	1895.52952
225.521	2907.08599
225.741	690.75382
225.962	650.05207
226.183	334.85976
226.404	1126.9178
226.624	1332.35317
226.845	618.0462
227.066	656.27069
227.286	330.9183
227.507	181.39448
227.728	176.85356
227.948	276.77719
228.169	90.90461
228.389	94.88689
228.61	52.34602
228.831	74.03251
229.051	8.10537
229.272	41.3822
229.492	60.24901
229.713	20.47253
229.933	44.48805
230.154	38.89665
230.374	63.13427
230.595	46.19116
230.815	27.41284
231.036	49.52004
231.256	-6.14319
231.477	76.3539
231.697	46.50013
231.917	56.56214
232.138	72.19696
232.358	147.7107
232.579	132.85342
232.799	22.41428
233.019	115.95887
233.24	145.65676
233.46	51.2927
233.68	78.47867
233.901	52.33613
234.121	37.16872
234.341	11.04664
234.561	-0.6887
234.782	27.42121
235.002	84.72733
235.222	1.93282
235.442	75.24674
235.662	39.35654
235.883	74.8261
236.103	65.76286
236.323	47.53128
236.543	39.26719
236.763	54.8954
236.983	57.78412
237.203	59.35681
237.423	82.33866
237.643	110.66992
237.864	95.32893
238.084	25.41779
238.304	38.34705
238.524	68.07157
238.744	53.44985
238.964	87.04355
239.184	76.30795
239.404	80.42465
239.624	42.26223
239.843	70.92041
240.063	45.77284
240.283	31.45979
240.503	33.22703
240.723	29.30528
240.943	17.52404
241.163	22.90681
241.383	12.95691
241.603	10.01719
241.822	10.26528
242.042	8.29891
242.262	10.76747
242.482	11.46637
242.702	12.85993
242.921	4.09906
243.141	9.13385
243.361	7.78999
243.581	12.21613
243.8	9.97848
244.02	6.52435
244.24	12.33663
244.459	12.41124
244.679	23.33253
244.899	15.72803
245.118	17.74709
245.338	15.33051
245.558	18.31891
245.777	10.11266
245.997	11.60759
246.216	12.78275
246.436	7.37357
246.655	5.65119
246.875	3.87194
247.094	7.61598
247.314	3.0355
247.533	4.51678
247.753	5.25492
247.972	4.58412
248.192	1.69936
248.411	2.69249
248.631	4.87651
248.85	6.25239
249.07	4.88813
249.289	8.10055
249.508	6.15586
249.728	9.65458
249.947	10.13542
250.166	11.68805
250.386	5.55536
250.605	9.49861
250.824	15.16187
251.044	10.30376
251.263	29.19658
251.482	17.1094
251.701	14.50397
251.921	0.38323
252.14	5.41151
252.359	5.31272
252.578	12.25713
252.798	4.38843
253.017	11.13693
253.236	5.63655
253.455	8.04355
253.674	14.7278
253.893	7.27169
254.112	10.5937
254.331	14.44095
254.551	13.21972
254.77	5.64247
254.989	18.42959
255.208	13.67457
255.427	19.2634
255.646	15.98881
255.865	27.36394
256.084	10.10956
256.303	14.7137
256.522	17.34764
256.741	5.37963
256.96	4.47651
257.179	10.18681
257.397	14.45379
257.616	7.47472
257.835	7.98803
258.054	18.62843
258.273	11.97987
258.492	13.48666
258.711	8.07201
258.93	3.26092
259.148	5.40147
259.367	5.56983
259.586	6.51133
259.805	2.7549
260.023	6.02393
260.242	4.47133
260.461	3.4918
260.68	1.95919
260.898	5.39998
261.117	2.01995
261.336	1.41765
261.554	4.40384
261.773	4.58838
261.992	1.02079
262.21	4.68154
262.429	5.488
262.648	8.83319
262.866	10.28044
263.085	7.17881
263.303	7.26638
263.522	11.07779
263.74	11.58906
263.959	18.81267
264.178	9.25606
264.396	8.86899
264.615	6.5236
264.833	14.48698
265.051	12.51159
265.27	12.77057
265.488	13.70448
265.707	8.37403
265.925	13.86247
266.144	6.99542
266.362	7.69541
266.58	7.1842
266.799	6.50837
267.017	7.2025
267.235	6.43169
267.454	4.31229
267.672	2.36772
267.89	5.59202
268.109	5.67713
268.327	5.80361
268.545	1.46548
268.763	5.19524
268.982	2.0163
269.2	6.34852
269.418	3.72981
269.636	2.5769
269.854	5.9485
270.073	4.40842
270.291	2.32375
270.509	2.59186
270.727	5.47438
270.945	8.77319
271.163	9.0162
271.381	2.1903
271.599	4.02596
271.817	6.61756
272.036	2.56271
272.254	3.98764
272.472	3.13981
272.69	3.23153
272.908	3.25317
273.126	5.266
273.344	6.76438
273.562	2.45406
273.779	3.31876
273.997	5.17936
274.215	5.50367
274.433	3.74602
274.651	5.82761
274.869	6.07556
275.087	3.69521
275.305	5.54225
275.523	3.4951
275.74	3.74252
275.958	6.60241
276.176	10.1719
276.394	3.38569
276.612	4.28422
276.829	3.94223
277.047	3.67001
277.265	3.81403
277.483	4.488
277.7	5.64267
277.918	4.6143
278.136	7.84064
278.353	3.97306
278.571	2.4905
278.789	5.89571
279.006	1.46762
279.224	3.89037
279.442	6.38182
279.659	4.54908
279.877	3.15165
280.094	6.63788
280.312	1.49038
280.529	4.39979
280.747	1.04737
280.964	3.44729
281.182	7.49702
281.399	3.54362
281.617	4.59571
281.834	3.48491
282.052	3.01333
282.269	4.00547
282.487	3.23236
282.704	2.92786
282.921	2.86663
283.139	4.50529
283.356	5.36485
283.574	4.89015
283.791	2.41626
284.008	6.72172
284.226	3.72765
284.443	4.12301
284.66	5.37232
284.877	4.3237
285.095	2.919
285.312	2.03905
285.529	1.42145
285.746	1.24339
285.964	2.68097
286.181	1.60214
286.398	2.5005
286.615	3.44952
286.832	3.14166
287.05	1.12683
287.267	2.45588
287.484	2.42585
287.701	3.57929
287.918	3.31163
288.135	3.84418
288.352	1.52677
288.569	1.9317
288.786	3.35136
289.003	2.49136
289.22	3.55853
289.437	2.19785
289.654	3.45925
289.871	3.87098
290.088	3.74231
290.305	2.7352
290.522	2.39531
290.739	2.5872
290.956	3.88816
291.173	4.73194
291.39	4.23018
291.607	3.15767
291.824	2.50307
292.04	1.53367
292.257	3.72183
292.474	4.30523
292.691	2.68662
292.908	1.40652
293.125	2.60416
293.341	1.46587
293.558	6.27843
293.775	2.58896
293.992	2.76969
294.208	1.19749
294.425	1.73285
294.642	2.42137
294.858	3.40283
295.075	1.03326
295.292	2.54907
295.508	3.15094
295.725	4.6947
295.942	2.26077
296.158	1.59663
296.375	2.5962
296.591	2.03048
296.808	2.14416
297.024	2.40424
297.241	2.63104
297.458	2.83084
297.674	0.35248
297.891	2.41788
298.107	1.80803
298.323	1.39912
298.54	3.45478
298.756	1.75136
298.973	0.96158
299.189	3.60979
299.406	1.50886
299.622	3.72228
299.838	3.5369
300.055	3.14324
300.271	0.70996
300.487	1.35662
300.704	1.43514
300.92	1.00382
301.136	4.80985
301.353	3.73548
301.569	2.63321
301.785	2.88537
302.001	3.40661
302.218	2.91253
302.434	3.03163
302.65	0.99602
302.866	2.10132
303.083	4.80912
303.299	4.65055
303.515	2.33384
303.731	2.69488
303.947	0.85528
304.163	1.70174
304.379	2.53818
304.595	3.07627
304.812	1.79247
305.028	1.39063
305.244	2.13363
305.46	3.31666
305.676	3.38959
305.892	4.15227
306.108	2.7871
306.324	2.28183
306.54	4.55081
306.756	3.33052
306.972	3.19268
307.187	2.08096
307.403	4.34753
307.619	2.0375
307.835	3.64174
308.051	4.17504
308.267	1.20622
308.483	3.55921
308.699	2.89088
308.914	2.59294
309.13	2.43171
309.346	0.68815
309.562	1.35975
309.778	0.89673
309.993	3.0425
310.209	2.18023
310.425	1.23429
310.641	2.08152
310.856	1.15348
311.072	1.27112
311.288	2.28739
311.503	2.43518
311.719	0.62282
311.935	0.37904
312.15	2.49025
312.366	2.316
312.581	2.95168
312.797	2.34535
313.013	3.01165
313.228	1.74801
313.444	2.56714
313.659	1.78591
313.875	2.71588
314.09	2.28738
314.306	3.95105
314.521	3.33806
314.737	3.01849
314.952	2.53733
315.168	2.17872
315.383	2.85416
315.599	2.28759
315.814	2.31783
316.029	3.41023
316.245	1.00115
316.46	0.65663
316.675	3.95827
316.891	4.80921
317.106	5.74216
317.321	3.2326
317.537	3.16482
317.752	3.18506
317.967	3.41094
318.183	1.53558
318.398	2.18179
318.613	3.48448
318.828	4.0711
319.043	3.41465
319.259	2.23534
319.474	2.94293
319.689	3.73367
319.904	0.81849
320.119	3.30845
320.334	2.65808
320.549	2.24347
320.765	3.82919
320.98	2.97388
321.195	3.44658
321.41	2.36186
321.625	3.34318
321.84	4.53391
322.055	4.72049
322.27	2.00344
322.485	1.32449
322.7	3.02204
322.915	3.59878
323.13	1.54319
323.345	4.16607
323.56	3.22146
323.775	3.04101
323.989	3.14072
324.204	2.63112
324.419	3.5817
324.634	1.01318
324.849	2.33331
325.064	4.81621
325.279	3.49541
325.493	3.13115
325.708	3.90484
325.923	1.8132
326.138	1.62414
326.352	4.26451
326.567	3.51777
326.782	2.05467
326.997	1.77069
327.211	3.38619
327.426	3.09466
327.641	2.16896
327.855	0.8789
328.07	3.11422
328.285	4.48217
328.499	2.24792
328.714	2.85121
328.928	3.60455
329.143	2.58838
329.358	3.73066
329.572	3.68317
329.787	3.9351
330.001	5.17988
330.216	1.08102
330.43	4.53658
330.645	4.45898
330.859	3.52277
331.074	1.78919
331.288	2.77343
331.503	4.17038
331.717	1.61423
331.931	2.58261
332.146	2.88242
332.36	4.62433
332.575	3.18755
332.789	2.94448
333.003	2.37356
333.218	3.28948
333.432	1.78494
333.646	3.31857
333.86	4.07792
334.075	4.44275
334.289	1.91449
334.503	1.72719
334.717	3.20825
334.932	3.17672
335.146	4.37679
335.36	2.34983
335.574	3.38336
335.788	3.49833
336.003	4.02673
336.217	3.53979
336.431	3.23812
336.645	2.11352
336.859	1.29576
337.073	2.40212
337.287	2.50777
337.501	1.49321
337.715	2.52123
337.929	3.19868
338.143	1.25538
338.357	2.42017
338.571	1.57264
338.785	2.99136
338.999	2.05123
339.213	2.04833
339.427	1.06282
339.641	3.79707
339.855	2.41402
340.069	2.08154
340.283	3.73602
340.497	4.23365
340.711	3.0752
340.924	2.33599
341.138	1.51727
341.352	1.12965
341.566	2.66737
341.78	0.69061
341.993	1.97508
342.207	1.55908
342.421	2.78403
342.635	2.74696
342.848	1.82019
343.062	0.72065
343.276	1.75603
343.49	4.73894
343.703	1.85073
343.917	3.37551
344.131	3.32335
344.344	1.70727
344.558	1.91414
344.771	1.48914
344.985	3.77262
345.199	4.1144
345.412	2.78671
345.626	2.61211
345.839	0.72556
346.053	1.40826
346.266	1.26452
346.48	3.1392
346.693	2.83285
346.907	2.9251
347.12	1.71659
347.334	2.77712
347.547	2.80784
347.76	2.12579
347.974	3.79875
348.187	2.7448
348.401	2.34634
348.614	1.91137
348.827	2.37715
349.041	3.29255
349.254	0.69879
349.467	2.29328
349.681	1.2105
349.894	1.83768
350.107	3.5161
350.32	4.04989
350.534	0.89809
350.747	1.97101
350.96	1.57121
351.173	1.75185
351.386	1.99184
351.6	1.95975
351.813	1.63352
352.026	2.27036
352.239	1.04618
352.452	2.24556
352.665	3.28138
352.878	2.17801
353.092	4.4846
353.305	2.87702
353.518	2.42724
353.731	1.4294
353.944	3.27656
354.157	1.63355
354.37	1.44561
354.583	1.2939
354.796	0.7319
355.009	3.42064
355.222	2.39479
355.435	2.35635
355.647	3.41069
355.86	1.31754
356.073	2.27574
356.286	1.67524
356.499	2.85399
356.712	2.55691
356.925	2.52152
357.138	3.10584
357.35	1.24473
357.563	1.78263
357.776	2.25184
357.989	1.85426
358.201	2.62074
358.414	2.27228
358.627	3.30325
358.84	1.82966
359.052	1.18294
359.265	1.22256
359.478	3.02608
359.69	-0.3854
359.903	2.90406
360.116	2.78659
360.328	0.61772
360.541	2.82994
360.753	1.27255
360.966	1.52865
361.179	1.65378
361.391	1.46286
361.604	1.02572
361.816	1.49745
362.029	1.33739
362.241	1.12609
362.454	1.38045
362.666	1.13092
362.879	1.97308
363.091	1.69771
363.304	1.16676
363.516	1.86405
363.728	0.85745
363.941	2.35295
364.153	1.56588
364.366	0.02935
364.578	0.90169
364.79	2.28496
365.003	1.86789
365.215	1.38073
365.427	2.30609
365.639	3.00738
365.852	2.17231
366.064	3.65248
366.276	1.58659
366.488	2.39445
366.701	1.45249
366.913	1.88399
367.125	1.51423
367.337	1.80126
367.549	1.52778
367.762	1.89861
367.974	1.95302
368.186	1.35352
368.398	2.92722
368.61	2.47011
368.822	2.7215
369.034	2.05042
369.246	2.55981
369.458	4.15465
369.67	1.14057
369.882	3.62371
370.094	0.2043
370.306	3.43803
370.518	1.61757
370.73	1.35647
370.942	1.26922
371.154	1.72294
371.366	1.50001
371.578	2.16045
371.79	1.1374
372.002	3.01446
372.214	3.52722
372.425	2.08784
372.637	3.12424
372.849	2.27769
373.061	0.18357
373.273	2.40063
373.484	2.35222
373.696	2.65174
373.908	0.21299
374.12	2.82607
374.331	2.45014
374.543	1.18194
374.755	1.15183
374.967	2.1796
375.178	2.53813
375.39	1.79521
375.602	1.90575
375.813	0.90629
376.025	1.0077
376.236	1.95167
376.448	1.96461
376.66	1.54607
376.871	1.46337
377.083	2.76615
377.294	2.84476
377.506	1.44922
377.717	2.86283
377.929	2.04231
378.14	1.21147
378.352	2.2948
378.563	2.27458
378.775	2.90712
378.986	1.2462
379.197	2.21609
379.409	1.39115
379.62	2.6707
379.832	2.1107
380.043	1.77157
380.254	2.06598
380.466	1.02523
380.677	4.25937
380.888	3.84909
381.1	4.02586
381.311	3.8844
381.522	2.02904
381.733	4.60682
381.945	1.67664
382.156	1.91897
382.367	1.66411
382.578	4.50584
382.789	4.25727
383.001	1.50798
383.212	3.16513
383.423	3.23006
383.634	3.00493
383.845	2.33843
384.056	1.66405
384.267	1.90626
384.478	1.76216
384.69	1.13404
384.901	2.40641
385.112	2.25746
385.323	3.40777
385.534	2.24118
385.745	2.13819
385.956	2.42653
386.167	1.18287
386.378	2.44256
386.588	1.08562
386.799	1.31301
387.01	0.64296
387.221	2.77744
387.432	1.80187
387.643	3.59316
387.854	1.64272
388.065	1.71577
388.275	1.84435
388.486	1.61569
388.697	1.89019
388.908	1.60286
389.119	2.89463
389.329	3.53118
389.54	2.10216
389.751	2.22557
389.962	2.98612
390.172	2.10438
390.383	1.53013
390.594	1.42002
390.804	1.21631
391.015	1.41537
391.226	1.94777
391.436	2.23656
391.647	2.12275
391.858	2.49597
392.068	0.53863
392.279	1.0413
392.489	2.03943
392.7	2.74458
392.91	1.17937
393.121	1.40566
393.331	2.31163
393.542	2.98093
393.752	2.40542
393.963	2.12373
394.173	2.00271
394.384	2.5595
394.594	1.9453
394.804	1.0346
395.015	1.98929
395.225	2.44295
395.436	1.02249
395.646	2.4987
395.856	1.38646
396.067	0.8619
396.277	2.80382
396.487	2.30774
396.697	2.13672
396.908	2.81217
397.118	2.50875
397.328	2.16513
397.538	2.75279
397.749	1.33487
397.959	2.71005
398.169	2.49738
398.379	0.79849
398.589	2.62859
398.8	2.08477
399.01	1.94189
399.22	1.70474
399.43	3.90961
399.64	1.69358
399.85	2.54552
400.06	1.98716
400.27	1.45108
400.48	2.02015
400.69	3.25384
400.9	1.5649
401.11	1.48436
401.32	2.75019
401.53	1.63197
401.74	3.36766
401.95	2.63594
402.16	1.33317
402.37	2.52312
402.58	1.55423
402.79	2.48939
403	3.00202
403.209	1.48607
403.419	2.63207
403.629	1.63086
403.839	2.6261
404.049	2.70351
404.258	1.45657
404.468	1.44529
404.678	2.562
404.888	2.57358
405.097	1.38652
405.307	1.90521
405.517	2.45499
405.727	2.2121
405.936	1.68861
406.146	2.28112
406.356	3.15577
406.565	1.93173
406.775	1.60071
406.984	1.6052
407.194	3.62361
407.404	2.1529
407.613	2.39025
407.823	2.67494
408.032	3.19701
408.242	2.91203
408.451	1.67938
408.661	2.07855
408.87	3.53318
409.08	1.61663
409.289	2.4288
409.499	2.26858
409.708	2.1892
409.918	0.41864
410.127	2.14456
410.336	3.27712
410.546	2.59512
410.755	1.71671
410.964	1.64801
411.174	1.3701
411.383	2.51281
411.592	2.48534
411.802	1.42332
412.011	2.74152
412.22	2.02745
412.429	3.33969
412.639	3.28601
412.848	3.01988
413.057	3.48438
413.266	3.20765
413.475	2.07838
413.685	2.88907
413.894	2.88078
414.103	3.05761
414.312	2.81582
414.521	2.0379
414.73	2.20451
414.939	3.78678
415.148	2.62663
415.357	2.39976
415.566	1.91281
415.776	1.82088
415.985	1.75083
416.194	2.72796
416.403	3.41882
416.611	1.12887
416.82	1.60916
417.029	2.13234
417.238	1.58517
417.447	1.30336
417.656	1.66171
417.865	1.41943
418.074	1.75635
418.283	1.80451
418.492	2.47875
418.7	2.3221
418.909	3.08214
419.118	2.08815
419.327	2.39427
419.536	2.10622
419.744	1.68089
419.953	2.9736
420.162	2.8833
420.371	1.76042
420.579	1.67123
420.788	2.85291
420.997	2.74331
421.205	2.74247
421.414	2.50243
421.623	2.40596
421.831	1.98217
422.04	2.79898
422.249	1.86077
422.457	2.49184
422.666	1.8949
422.874	3.0706
423.083	2.9905
423.291	2.84007
423.5	2.48159
423.708	2.70455
423.917	3.1893
424.125	2.54365
424.334	2.14552
424.542	4.14801
424.751	3.33716
424.959	3.06283
425.167	3.50244
425.376	3.34566
425.584	2.56024
425.793	2.85801
426.001	1.93104
426.209	2.77384
426.418	1.86015
426.626	1.93561
426.834	1.71154
427.042	2.23616
