Data from WindowProjectSample_Transmission__17__00017__020890005481357532.txt Node

Date: Mon May 05 17:07:11 EDT 2025
User: jessi
Spectrometer: SR400872
Trigger mode: 0
Integration Time (sec): 5.000010E-1
Scans to average: 20
Electric dark correction enabled: true
Nonlinearity correction enabled: true
Boxcar width: 0
XAxis mode: Wavelengths
Number of Pixels in Spectrum: 3648
>>>>>Begin Spectral Data<<<<<
184.909	21632.64796
185.132	-5032.04718
185.355	-3087.54574
185.578	-18474.08193
185.801	957.13176
186.024	10179.26939
186.247	-1853.27574
186.47	1377.55392
186.693	430.35153
186.916	268.36358
187.139	-3891.0118
187.362	3571.55993
187.585	4120.56253
187.808	3615.58878
188.031	16.01414
188.254	-57449.73198
188.476	-1696.73557
188.699	6423.00786
188.922	675.70369
189.145	-15070.93094
189.368	-678.41726
189.591	-1559.63344
189.813	3293.08238
190.036	-51159.81435
190.259	-886.4014
190.482	-4611.09782
190.705	7097.05594
190.927	-2498.74835
191.15	13145.73979
191.373	3605.59687
191.595	-8859.54043
191.818	-4296.17099
192.041	-7317.57053
192.263	-3457.74974
192.486	-971.35026
192.709	-3827.75634
192.931	7915.79099
193.154	-29013.50612
193.377	-3007.54515
193.599	-2756.7315
193.822	-9501.24586
194.044	-2259.41608
194.267	1227.03785
194.489	322.62235
194.712	-43134.21196
194.934	-31436.96069
195.157	1089.76206
195.379	1545.85363
195.602	-7042.66467
195.824	-1312.75669
196.047	-8953.84653
196.269	2680.93637
196.492	-6712.89034
196.714	28452.39744
196.936	-8558.14454
197.159	-1221.16022
197.381	1234.75732
197.604	371.97444
197.826	12403.43008
198.048	-11037.2903
198.271	-2646.8146
198.493	7615.49187
198.715	2339.65604
198.938	-517.23592
199.16	7077.55846
199.382	-101830.99389
199.604	2560.61183
199.827	-1091.48827
200.049	-2795.48147
200.271	14459.49687
200.493	1264.57428
200.715	-37531.34607
200.938	-6149.19278
201.16	-4127.70543
201.382	21799.87473
201.604	2414.26819
201.826	2352.99407
202.048	-1917.89903
202.27	-2090.43601
202.492	-36140.31057
202.715	2867.60537
202.937	-4637.41221
203.159	-6460.08099
203.381	1463.71287
203.603	7035.61164
203.825	6754.83226
204.047	2165.48584
204.269	-2797.17474
204.491	2225.67002
204.713	6103.36737
204.935	-475723.87377
205.156	1171.19102
205.378	-3160.23171
205.6	1595.71388
205.822	156992.11769
206.044	-1065.01313
206.266	1561.90421
206.488	4695.31683
206.71	-5168.94872
206.932	1065.28035
207.153	12572.11056
207.375	-7000.06222
207.597	-37906.92382
207.819	-2819.1331
208.041	2506.10728
208.262	498.69521
208.484	712.34668
208.706	-834.29425
208.927	-817.86169
209.149	619.02423
209.371	-3012.07367
209.593	-303.06307
209.814	-784.20208
210.036	578.29801
210.258	-669.13803
210.479	1755.78765
210.701	1674.37788
210.922	3368.89512
211.144	-4343.62475
211.366	2150.88756
211.587	8143.99043
211.809	-8165.1895
212.03	2487.58605
212.252	462.81881
212.473	2126.50333
212.695	-6383.91472
212.916	2869.15659
213.138	-716.5689
213.359	3828.61949
213.581	5544.34953
213.802	-693.91533
214.024	1149.61174
214.245	2155.08142
214.466	2146.75399
214.688	-3161.17151
214.909	-1287.49863
215.131	-1670.62761
215.352	-3253.13562
215.573	15004.87369
215.795	5140.16077
216.016	5575.9154
216.237	918.09102
216.459	3586.47481
216.68	1795.78596
216.901	5253.81605
217.122	-3080.18943
217.344	-12392.85198
217.565	3535.49691
217.786	8797.37465
218.007	15701.4931
218.228	-796.83734
218.45	5954.14978
218.671	732.17884
218.892	37607.65221
219.113	1567.66195
219.334	-288.76844
219.555	9613.92165
219.776	3151.42295
219.997	23019.48121
220.219	2965.43692
220.44	-10656.7158
220.661	431.29499
220.882	1462.187
221.103	-1047.12686
221.324	2219.31109
221.545	2348.83812
221.766	-8698.6657
221.987	973.30441
222.208	1584.58573
222.429	4405.83539
222.65	248.35468
222.87	17312.1601
223.091	735.19048
223.312	582.82155
223.533	1359.45247
223.754	1484.84072
223.975	1362.03514
224.196	2096.24317
224.417	1336.32717
224.637	597.56097
224.858	30.27797
225.079	1192.06023
225.3	698.95255
225.521	3746.12435
225.741	489.64011
225.962	524.09311
226.183	164.34475
226.404	678.25326
226.624	439.89088
226.845	662.22502
227.066	420.16985
227.286	246.31072
227.507	123.08066
227.728	115.33907
227.948	243.13565
228.169	78.5089
228.389	82.12517
228.61	48.77978
228.831	65.42165
229.051	1.53589
229.272	39.94552
229.492	57.4635
229.713	15.06068
229.933	37.51938
230.154	31.56324
230.374	54.0688
230.595	38.19281
230.815	25.4511
231.036	40.03635
231.256	-10.71823
231.477	69.17809
231.697	37.27889
231.917	38.77744
232.138	56.93591
232.358	115.1601
232.579	106.18782
232.799	17.53384
233.019	99.34281
233.24	115.45883
233.46	39.25103
233.68	63.8046
233.901	46.00735
234.121	29.03582
234.341	12.33289
234.561	-3.87112
234.782	23.66133
235.002	68.67876
235.222	-6.19066
235.442	67.77255
235.662	36.92015
235.883	62.90163
236.103	50.91594
236.323	36.7753
236.543	28.83191
236.763	40.51099
236.983	43.54726
237.203	44.20124
237.423	57.76555
237.643	91.13634
237.864	73.90724
238.084	18.42014
238.304	27.39811
238.524	46.11545
238.744	40.90027
238.964	74.30851
239.184	62.84275
239.404	65.91521
239.624	33.79422
239.843	60.45595
240.063	34.30925
240.283	22.27327
240.503	25.36346
240.723	25.04504
240.943	14.86576
241.163	19.79196
241.383	14.74661
241.603	7.2924
241.822	9.69
242.042	6.5644
242.262	8.00405
242.482	9.72145
242.702	10.45323
242.921	2.63496
243.141	7.0207
243.361	6.5852
243.581	9.1862
243.8	7.4129
244.02	5.33746
244.24	9.63694
244.459	9.16515
244.679	17.51674
244.899	11.32216
245.118	12.60863
245.338	12.17496
245.558	14.47073
245.777	8.21468
245.997	11.09334
246.216	10.26082
246.436	6.38077
246.655	4.7475
246.875	3.11846
247.094	6.80565
247.314	2.17475
247.533	3.53492
247.753	4.41526
247.972	3.43748
248.192	1.20701
248.411	1.91249
248.631	3.42938
248.85	4.8373
249.07	3.8463
249.289	5.76852
249.508	5.00465
249.728	7.69497
249.947	6.77728
250.166	9.25912
250.386	4.33876
250.605	7.33819
250.824	11.1229
251.044	8.06776
251.263	28.84459
251.482	15.48251
251.701	11.37937
251.921	-0.15034
252.14	2.97164
252.359	3.97933
252.578	9.94342
252.798	3.62285
253.017	8.84871
253.236	3.82804
253.455	5.7576
253.674	10.28886
253.893	5.18015
254.112	7.9012
254.331	11.09532
254.551	8.88097
254.77	3.36738
254.989	13.4038
255.208	9.72022
255.427	15.69298
255.646	11.3805
255.865	21.52813
256.084	9.41048
256.303	10.64477
256.522	14.24873
256.741	3.38719
256.96	2.82392
257.179	8.30696
257.397	10.64488
257.616	5.71401
257.835	6.51583
258.054	14.98046
258.273	10.44642
258.492	11.42777
258.711	6.83509
258.93	3.06466
259.148	4.82025
259.367	4.54035
259.586	5.68567
259.805	2.28415
260.023	5.21788
260.242	3.98922
260.461	2.74291
260.68	1.34624
260.898	4.45997
261.117	1.31237
261.336	1.03611
261.554	3.44065
261.773	3.49272
261.992	0.75202
262.21	3.36475
262.429	3.62483
262.648	7.44603
262.866	8.15029
263.085	5.96758
263.303	4.77513
263.522	8.93285
263.74	8.75233
263.959	15.57095
264.178	7.43138
264.396	6.47043
264.615	4.96697
264.833	10.85997
265.051	8.79621
265.27	11.23189
265.488	10.96174
265.707	6.2666
265.925	11.06512
266.144	4.70379
266.362	5.74765
266.58	5.6894
266.799	5.40809
267.017	6.17317
267.235	5.55175
267.454	3.16337
267.672	1.89486
267.89	4.34189
268.109	4.50627
268.327	4.40393
268.545	1.08654
268.763	3.76212
268.982	1.39839
269.2	4.45454
269.418	2.9221
269.636	1.9346
269.854	4.74967
270.073	3.05895
270.291	1.89543
270.509	2.0213
270.727	4.4292
270.945	7.01417
271.163	7.16321
271.381	1.47195
271.599	3.24258
271.817	5.48762
272.036	1.75458
272.254	3.06431
272.472	2.42058
272.69	2.44631
272.908	2.36245
273.126	4.47534
273.344	5.42663
273.562	1.72374
273.779	2.62307
273.997	3.86046
274.215	4.20387
274.433	2.92099
274.651	4.5008
274.869	4.79922
275.087	2.98349
275.305	4.13422
275.523	2.68198
275.74	2.70285
275.958	5.59973
276.176	8.37873
276.394	2.82317
276.612	3.21159
276.829	3.38321
277.047	2.69666
277.265	3.01652
277.483	3.54384
277.7	4.42675
277.918	3.3377
278.136	6.55318
278.353	2.94589
278.571	1.9554
278.789	4.61109
279.006	0.61549
279.224	3.08906
279.442	5.02582
279.659	3.57516
279.877	2.4362
280.094	5.80754
280.312	1.13459
280.529	3.5259
280.747	1.06394
280.964	2.6147
281.182	6.08288
281.399	2.83717
281.617	3.882
281.834	2.62436
282.052	1.94437
282.269	3.14875
282.487	2.38357
282.704	2.1893
282.921	2.30675
283.139	3.45954
283.356	4.13667
283.574	3.74952
283.791	1.9111
284.008	5.66378
284.226	3.02256
284.443	3.33113
284.66	4.65644
284.877	3.4865
285.095	2.1291
285.312	1.66187
285.529	1.05044
285.746	0.75977
285.964	2.03947
286.181	1.37833
286.398	1.97734
286.615	2.71688
286.832	2.62811
287.05	0.5647
287.267	1.81841
287.484	1.80668
287.701	2.54108
287.918	2.6336
288.135	2.68462
288.352	1.26292
288.569	1.53359
288.786	2.35804
289.003	2.17141
289.22	3.03662
289.437	1.71849
289.654	2.81492
289.871	3.05187
290.088	2.92581
290.305	2.30178
290.522	1.77742
290.739	2.03143
290.956	3.26357
291.173	3.58238
291.39	3.43222
291.607	2.46238
291.824	1.73147
292.04	1.26877
292.257	3.02603
292.474	3.31042
292.691	2.16982
292.908	1.07192
293.125	1.62451
293.341	1.14195
293.558	5.03613
293.775	1.9654
293.992	2.27835
294.208	0.9695
294.425	1.36544
294.642	2.03839
294.858	3.1228
295.075	0.72485
295.292	2.05627
295.508	2.47623
295.725	4.31632
295.942	2.07036
296.158	1.69045
296.375	2.56676
296.591	2.05696
296.808	2.32635
297.024	2.68123
297.241	2.9443
297.458	3.25422
297.674	1.18915
297.891	2.76478
298.107	2.59557
298.323	2.15964
298.54	4.37013
298.756	2.62792
298.973	1.97506
299.189	4.57902
299.406	2.8715
299.622	4.3462
299.838	4.43278
300.055	4.35131
300.271	2.53066
300.487	2.86934
300.704	3.23306
300.92	2.80609
301.136	6.49868
301.353	4.58485
301.569	4.16396
301.785	4.52878
302.001	5.07799
302.218	4.62474
302.434	5.02629
302.65	3.41336
302.866	4.18081
303.083	6.92487
303.299	6.86489
303.515	5.01992
303.731	5.45844
303.947	3.82233
304.163	4.52563
304.379	5.21777
304.595	5.56828
304.812	4.62128
305.028	4.67096
305.244	5.13949
305.46	6.04365
305.676	6.31601
305.892	6.75135
306.108	6.2642
306.324	5.20843
306.54	7.42355
306.756	5.78895
306.972	5.9681
307.187	5.90048
307.403	6.90195
307.619	5.40994
307.835	6.92479
308.051	7.29813
308.267	5.2067
308.483	7.43265
308.699	6.60448
308.914	6.3046
309.13	6.19975
309.346	5.35877
309.562	5.73494
309.778	5.49895
309.993	7.14284
310.209	7.12073
310.425	5.79774
310.641	6.94072
310.856	6.14103
311.072	6.23891
311.288	6.99746
311.503	7.59111
311.719	5.83286
311.935	5.95279
312.15	7.86965
312.366	7.66078
312.581	7.74697
312.797	7.66043
313.013	8.05097
313.228	6.97972
313.444	7.07494
313.659	6.67384
313.875	7.67562
314.09	7.10193
314.306	8.3486
314.521	8.03922
314.737	7.94431
314.952	7.39487
315.168	7.59001
315.383	7.8095
315.599	7.06611
315.814	7.33043
316.029	8.25734
316.245	6.74962
316.46	5.92691
316.675	8.47676
316.891	9.08633
317.106	10.13891
317.321	7.61354
317.537	8.34959
317.752	8.51317
317.967	8.33509
318.183	6.80608
318.398	7.48952
318.613	8.47856
318.828	9.0284
319.043	8.45006
319.259	7.51629
319.474	7.82598
319.689	8.88548
319.904	6.2535
320.119	8.81111
320.334	8.09633
320.549	8.11772
320.765	8.91318
320.98	8.34621
321.195	8.14929
321.41	7.97868
321.625	8.56959
321.84	9.73869
322.055	9.21853
322.27	7.49744
322.485	6.96472
322.7	8.49972
322.915	8.85208
323.13	7.67065
323.345	9.7388
323.56	9.45581
323.775	8.90635
323.989	8.85838
324.204	8.49794
324.419	9.63373
324.634	7.48304
324.849	8.4023
325.064	11.71148
325.279	9.61453
325.493	9.01516
325.708	9.47321
325.923	7.93758
326.138	8.56786
326.352	10.13974
326.567	9.72705
326.782	8.36074
326.997	8.50549
327.211	9.26676
327.426	9.13467
327.641	8.56588
327.855	7.59477
328.07	9.22743
328.285	10.73114
328.499	8.30294
328.714	8.98396
328.928	9.08806
329.143	8.66077
329.358	9.77012
329.572	9.52972
329.787	10.12088
330.001	11.04329
330.216	7.73291
330.43	10.97831
330.645	10.01469
330.859	9.76067
331.074	7.96862
331.288	9.03116
331.503	10.37073
331.717	8.17304
331.931	9.08715
332.146	9.24122
332.36	10.82039
332.575	9.42036
332.789	9.26198
333.003	9.67118
333.218	9.80017
333.432	8.81658
333.646	10.07572
333.86	10.95761
334.075	10.66419
334.289	8.81361
334.503	8.00966
334.717	9.79761
334.932	9.37498
335.146	10.07505
335.36	8.52146
335.574	9.9829
335.788	9.80718
336.003	10.53146
336.217	10.23127
336.431	9.95093
336.645	9.10895
336.859	8.55183
337.073	9.35421
337.287	9.75243
337.501	8.3896
337.715	10.18691
337.929	10.37814
338.143	8.98959
338.357	9.68651
338.571	9.66918
338.785	10.72028
338.999	9.62961
339.213	9.61329
339.427	8.88028
339.641	11.16099
339.855	9.53282
340.069	9.10892
340.283	10.74063
340.497	11.42352
340.711	10.46771
340.924	10.10002
341.138	9.16774
341.352	8.89808
341.566	10.1069
341.78	8.80493
341.993	9.75849
342.207	9.44068
342.421	10.49077
342.635	9.97737
342.848	10.01309
343.062	8.15794
343.276	9.67247
343.49	11.7697
343.703	9.70438
343.917	11.19565
344.131	11.34157
344.344	9.54361
344.558	10.07194
344.771	9.06821
344.985	11.59611
345.199	11.86448
345.412	10.74659
345.626	10.92873
345.839	9.18545
346.053	9.69977
346.266	9.89172
346.48	11.00086
346.693	10.99259
346.907	10.76787
347.12	9.78521
347.334	10.64601
347.547	10.91517
347.76	10.50665
347.974	11.54251
348.187	10.67815
348.401	10.32483
348.614	9.7308
348.827	10.32401
349.041	10.91786
349.254	9.24889
349.467	10.04421
349.681	9.83849
349.894	9.72176
350.107	11.73833
350.32	12.45451
350.534	9.72375
350.747	10.49099
350.96	9.93397
351.173	10.24363
351.386	10.63967
351.6	10.28085
351.813	10.49909
352.026	10.53412
352.239	10.04056
352.452	10.33505
352.665	11.90558
352.878	10.703
353.092	12.47576
353.305	11.60072
353.518	11.17732
353.731	10.05017
353.944	11.93452
354.157	10.65735
354.37	10.68703
354.583	10.30595
354.796	10.06684
355.009	11.91599
355.222	11.57448
355.435	11.09066
355.647	12.24306
355.86	10.73842
356.073	11.38955
356.286	10.89182
356.499	12.11463
356.712	11.96582
356.925	12.03858
357.138	12.22296
357.35	11.11486
357.563	11.39549
357.776	11.91251
357.989	11.72128
358.201	12.24752
358.414	12.10139
358.627	13.01205
358.84	11.71934
359.052	10.86216
359.265	11.39118
359.478	12.64431
359.69	10.07612
359.903	12.621
360.116	12.8689
360.328	10.91693
360.541	12.66752
360.753	11.52813
360.966	11.81322
361.179	12.16293
361.391	11.92572
361.604	11.95389
361.816	12.18223
362.029	12.2657
362.241	11.98133
362.454	12.52391
362.666	12.07207
362.879	13.07751
363.091	12.466
363.304	12.33481
363.516	12.46554
363.728	11.88373
363.941	12.87267
364.153	12.66189
364.366	11.11016
364.578	11.70373
364.79	12.64795
365.003	12.75115
365.215	12.00139
365.427	12.96874
365.639	13.26874
365.852	12.6763
366.064	14.03963
366.276	12.5441
366.488	12.80792
366.701	12.46128
366.913	12.51975
367.125	12.69133
367.337	12.13034
367.549	12.43526
367.762	12.76806
367.974	12.77559
368.186	12.65091
368.398	13.52539
368.61	12.99516
368.822	13.35403
369.034	12.60886
369.246	13.40159
369.458	15.11102
369.67	12.35868
369.882	14.07826
370.094	11.72497
370.306	13.95454
370.518	12.87073
370.73	12.86812
370.942	12.76041
371.154	13.19236
371.366	13.04126
371.578	13.65382
371.79	13.28189
372.002	14.27
372.214	15.14541
372.425	13.36334
372.637	14.82841
372.849	13.72167
373.061	12.32397
373.273	13.90068
373.484	13.88869
373.696	14.2745
373.908	12.19897
374.12	14.36271
374.331	14.05503
374.543	13.12714
374.755	13.19224
374.967	13.7895
375.178	14.5702
375.39	13.45925
375.602	14.15999
375.813	12.90894
376.025	13.40714
376.236	14.27478
376.448	14.50934
376.66	14.11342
376.871	14.15729
377.083	15.1568
377.294	15.81952
377.506	14.1269
377.717	15.57805
377.929	14.76725
378.14	14.58206
378.352	15.08148
378.563	15.15534
378.775	15.77567
378.986	14.13214
379.197	14.82556
379.409	14.18885
379.62	15.1848
379.832	15.16564
380.043	14.68421
380.254	15.11123
380.466	14.07206
380.677	16.98713
380.888	16.32654
381.1	16.86001
381.311	16.98645
381.522	15.5049
381.733	17.17275
381.945	15.38188
382.156	15.16843
382.367	14.97011
382.578	17.26812
382.789	17.47183
383.001	14.88476
383.212	16.71766
383.423	16.52196
383.634	16.48026
383.845	16.21302
384.056	15.52651
384.267	15.81836
384.478	15.89162
384.69	15.26234
384.901	16.2426
385.112	16.17232
385.323	17.36087
385.534	16.5272
385.745	16.41572
385.956	16.35997
386.167	15.71595
386.378	16.66095
386.588	15.75354
386.799	15.73066
387.01	15.55787
387.221	16.99288
387.432	16.53547
387.643	17.71873
387.854	16.42892
388.065	16.31341
388.275	16.43846
388.486	16.25157
388.697	16.68405
388.908	16.36075
389.119	17.53005
389.329	17.71099
389.54	16.91338
389.751	16.99719
389.962	17.71192
390.172	17.08404
390.383	16.90845
390.594	16.45792
390.804	16.69313
391.015	16.68156
391.226	17.34878
391.436	17.64714
391.647	17.59529
391.858	17.79403
392.068	16.54144
392.279	16.86418
392.489	17.73998
392.7	18.30321
392.91	17.23499
393.121	17.18873
393.331	17.934
393.542	18.46138
393.752	18.36315
393.963	18.11044
394.173	18.03386
394.384	18.23647
394.594	17.97874
394.804	17.38538
395.015	18.23888
395.225	18.42563
395.436	17.63464
395.646	18.4734
395.856	18.01871
396.067	17.17376
396.277	18.79439
396.487	18.44217
396.697	18.49481
396.908	18.37602
397.118	18.60008
397.328	18.32394
397.538	18.99613
397.749	17.80321
397.959	18.74672
398.169	18.50202
398.379	17.56202
398.589	18.79935
398.8	18.58962
399.01	18.64794
399.22	18.45342
399.43	20.02203
399.64	18.65369
399.85	19.05594
400.06	18.90959
400.27	18.20626
400.48	18.77267
400.69	19.71912
400.9	18.50621
401.11	18.18518
401.32	19.22291
401.53	18.39865
401.74	19.86531
401.95	19.22472
402.16	18.65008
402.37	19.13185
402.58	18.65599
402.79	19.18003
403	19.62515
403.209	18.45421
403.419	19.77294
403.629	18.68557
403.839	19.8163
404.049	19.80268
404.258	19.12784
404.468	18.85562
404.678	19.93479
404.888	20.25826
405.097	19.37371
405.307	19.40867
405.517	20.11431
405.727	19.98174
405.936	19.50845
406.146	19.94505
406.356	20.58598
406.565	19.69325
406.775	19.57274
406.984	19.50713
407.194	20.96323
407.404	19.71408
407.613	20.2095
407.823	20.367
408.032	20.61261
408.242	20.4231
408.451	19.63659
408.661	19.66725
408.87	20.90124
409.08	19.41633
409.289	20.17969
409.499	20.21042
409.708	20.03883
409.918	18.87602
410.127	20.25142
410.336	21.08077
410.546	20.63998
410.755	20.2007
410.964	20.20517
411.174	19.87521
411.383	20.72548
411.592	20.70354
411.802	19.96013
412.011	20.86647
412.22	20.32968
412.429	21.53236
412.639	21.37649
412.848	21.15914
413.057	21.39002
413.266	21.11084
413.475	20.58938
413.685	20.84884
413.894	21.24335
414.103	21.26514
414.312	21.16239
414.521	20.42298
414.73	20.79734
414.939	22.11006
415.148	21.19401
415.357	21.02173
415.566	20.80496
415.776	20.63885
415.985	20.81623
416.194	21.58598
416.403	22.36552
416.611	20.45253
416.82	20.88462
417.029	21.32582
417.238	20.88826
417.447	20.89313
417.656	21.28085
417.865	21.00838
418.074	21.268
418.283	21.51631
418.492	22.13715
418.7	21.94014
418.909	23.37687
419.118	22.46564
419.327	23.17899
419.536	23.15544
419.744	23.69198
419.953	25.30099
420.162	25.92141
420.371	25.85923
420.579	27.18475
420.788	28.04235
420.997	28.28861
421.205	29.51318
421.414	29.11643
421.623	29.48377
421.831	29.12136
422.04	29.67145
