Data from WindowProjectSample_Transmission__40__00040.txt Node

Date: Mon May 05 17:52:55 EDT 2025
User: jessi
Spectrometer: SR400872
Trigger mode: 0
Integration Time (sec): 5.000010E-1
Scans to average: 20
Electric dark correction enabled: true
Nonlinearity correction enabled: true
Boxcar width: 0
XAxis mode: Wavelengths
Number of Pixels in Spectrum: 3648
>>>>>Begin Spectral Data<<<<<
184.909	21826.82704
185.132	-5360.04369
185.355	-3188.12664
185.578	-19004.86946
185.801	1409.43653
186.024	10527.07143
186.247	-1751.53505
186.47	1013.76787
186.693	360.192
186.916	276.04464
187.139	-3846.51048
187.362	3996.28315
187.585	4373.0897
187.808	3962.108
188.031	-103.19011
188.254	-55547.3375
188.476	-554.23378
188.699	6461.46079
188.922	616.98806
189.145	-15847.92105
189.368	-717.6865
189.591	-1443.42406
189.813	3079.71157
190.036	-50681.97358
190.259	-983.88039
190.482	-4311.21736
190.705	7227.63791
190.927	-2409.19738
191.15	13801.32667
191.373	3391.23859
191.595	-8710.95032
191.818	-4252.03214
192.041	-6770.78656
192.263	-3448.97252
192.486	-711.618
192.709	-4101.59785
192.931	8378.54711
193.154	-29146.53702
193.377	-2855.02659
193.599	-2604.83922
193.822	-9742.23171
194.044	-2152.28543
194.267	1184.66868
194.489	273.47861
194.712	-43568.15941
194.934	-32683.21107
195.157	1263.55961
195.379	1366.77276
195.602	-7246.71296
195.824	-1291.05566
196.047	-8695.54787
196.269	2815.42142
196.492	-6322.38171
196.714	28826.0283
196.936	-9046.0391
197.159	-1275.763
197.381	1062.83528
197.604	401.99918
197.826	12732.43646
198.048	-10477.53321
198.271	-2941.57572
198.493	7633.96936
198.715	2468.04474
198.938	-507.30263
199.16	7304.71848
199.382	-103244.10999
199.604	2434.18139
199.827	-1160.04461
200.049	-3155.4471
200.271	15346.32435
200.493	1200.20202
200.715	-40541.04363
200.938	-6097.32452
201.16	-4299.97293
201.382	19763.50748
201.604	2366.52242
201.826	2325.32908
202.048	-1859.64951
202.27	-1906.7874
202.492	-39146.9504
202.715	2939.9598
202.937	-4697.01867
203.159	-6605.84304
203.381	1603.89688
203.603	7237.9987
203.825	6917.35691
204.047	2336.65406
204.269	-2882.00668
204.491	2117.70883
204.713	6022.8205
204.935	-494183.80366
205.156	1168.80284
205.378	-2930.07389
205.6	1563.82309
205.822	156440.99067
206.044	-1152.42974
206.266	1625.73363
206.488	4691.41749
206.71	-5409.37574
206.932	1135.89322
207.153	12504.59849
207.375	-7182.69961
207.597	-39141.72061
207.819	-3006.06857
208.041	2492.51096
208.262	489.16879
208.484	724.14726
208.706	-846.48901
208.927	-842.36698
209.149	571.95384
209.371	-2956.35082
209.593	-280.23195
209.814	-840.73747
210.036	616.49343
210.258	-714.5722
210.479	1785.42969
210.701	1721.4074
210.922	3223.89208
211.144	-3766.63396
211.366	2186.99522
211.587	7097.6539
211.809	-8132.99961
212.03	2489.99332
212.252	416.84614
212.473	2158.68661
212.695	-6317.14926
212.916	2904.8364
213.138	-624.79155
213.359	3907.61757
213.581	5398.60047
213.802	-812.59872
214.024	1152.68505
214.245	2139.91324
214.466	3444.34567
214.688	-3164.08151
214.909	-1206.29096
215.131	-1866.99612
215.352	-3151.12667
215.573	15149.59769
215.795	5347.0459
216.016	5592.28451
216.237	793.01427
216.459	3688.70514
216.68	1773.79185
216.901	5084.65958
217.122	-3497.36023
217.344	-11774.1377
217.565	3504.58975
217.786	9061.13555
218.007	16633.10457
218.228	-639.47713
218.45	5735.86094
218.671	729.49324
218.892	37500.91642
219.113	1507.57198
219.334	-274.39384
219.555	10932.52541
219.776	3247.26169
219.997	23044.59964
220.219	2811.75945
220.44	-11476.01185
220.661	473.93093
220.882	1482.99416
221.103	-1166.9315
221.324	2299.35286
221.545	2438.13556
221.766	-9436.36838
221.987	885.56447
222.208	1767.11994
222.429	4428.69308
222.65	147.20509
222.87	19089.82894
223.091	756.54236
223.312	636.34535
223.533	1379.92349
223.754	1535.87347
223.975	1378.00453
224.196	2027.40493
224.417	1373.54804
224.637	618.93374
224.858	123.786
225.079	1135.03165
225.3	676.29918
225.521	3799.15608
225.741	453.02596
225.962	523.6719
226.183	135.1
226.404	669.80377
226.624	425.37251
226.845	677.44405
227.066	417.32966
227.286	256.87079
227.507	136.49011
227.728	109.73687
227.948	243.43143
228.169	72.32727
228.389	87.3451
228.61	48.4366
228.831	65.49079
229.051	2.06365
229.272	39.77484
229.492	57.22705
229.713	13.4412
229.933	38.25047
230.154	34.7546
230.374	53.96464
230.595	38.35336
230.815	23.96663
231.036	39.51377
231.256	-12.0644
231.477	72.68873
231.697	40.07813
231.917	39.91502
232.138	60.53824
232.358	109.31365
232.579	103.07523
232.799	18.72387
233.019	100.75821
233.24	116.55286
233.46	35.93334
233.68	61.09781
233.901	43.11301
234.121	26.42647
234.341	13.02861
234.561	-6.40202
234.782	20.01119
235.002	71.52888
235.222	-2.63408
235.442	64.94683
235.662	31.43016
235.883	65.92435
236.103	50.81507
236.323	37.77289
236.543	28.20089
236.763	40.28676
236.983	44.69365
237.203	42.14363
237.423	63.98466
237.643	88.79412
237.864	76.83865
238.084	18.06772
238.304	27.09549
238.524	46.0282
238.744	39.12705
238.964	75.18309
239.184	62.65356
239.404	64.14557
239.624	35.39504
239.843	60.93935
240.063	38.04705
240.283	21.73206
240.503	26.13803
240.723	26.42613
240.943	13.70765
241.163	20.4731
241.383	14.45622
241.603	8.02876
241.822	10.0109
242.042	6.15868
242.262	8.40236
242.482	10.31845
242.702	11.09205
242.921	2.90622
243.141	6.7933
243.361	6.37803
243.581	9.34172
243.8	7.10151
244.02	4.46439
244.24	9.69031
244.459	9.51789
244.679	18.01158
244.899	11.37298
245.118	12.84401
245.338	12.35089
245.558	14.19228
245.777	8.15767
245.997	11.2732
246.216	11.13198
246.436	6.84157
246.655	4.79547
246.875	3.38812
247.094	6.4977
247.314	2.12952
247.533	3.80283
247.753	4.4109
247.972	3.46915
248.192	1.31284
248.411	1.71079
248.631	3.47711
248.85	4.77558
249.07	3.86116
249.289	6.03964
249.508	5.23548
249.728	7.87359
249.947	7.35065
250.166	9.03664
250.386	4.43619
250.605	6.87062
250.824	11.35847
251.044	7.74212
251.263	29.35145
251.482	15.20148
251.701	11.98486
251.921	-0.37216
252.14	3.15939
252.359	4.09971
252.578	10.29821
252.798	3.16422
253.017	9.24333
253.236	4.38517
253.455	5.6389
253.674	10.78206
253.893	4.77353
254.112	7.95884
254.331	11.43834
254.551	8.58032
254.77	3.36819
254.989	14.33055
255.208	9.1568
255.427	14.82903
255.646	12.25914
255.865	22.87948
256.084	7.66991
256.303	10.712
256.522	14.1374
256.741	2.89033
256.96	3.04113
257.179	8.62565
257.397	11.3257
257.616	5.7135
257.835	6.0457
258.054	15.58626
258.273	10.95687
258.492	11.2091
258.711	6.73991
258.93	3.006
259.148	4.8293
259.367	4.62948
259.586	5.66291
259.805	2.22294
260.023	5.44212
260.242	3.97434
260.461	2.82529
260.68	1.33993
260.898	4.64766
261.117	1.31852
261.336	0.83319
261.554	3.64304
261.773	3.35743
261.992	0.59732
262.21	3.43747
262.429	3.53852
262.648	7.58663
262.866	8.51312
263.085	5.80143
263.303	5.28888
263.522	9.04842
263.74	9.14054
263.959	15.50566
264.178	7.47084
264.396	6.62933
264.615	4.66743
264.833	11.20866
265.051	9.59994
265.27	10.82513
265.488	11.54273
265.707	6.34509
265.925	11.29773
266.144	4.74982
266.362	5.77125
266.58	5.67825
266.799	5.06098
267.017	6.45411
267.235	5.42768
267.454	3.39376
267.672	1.94779
267.89	4.16757
268.109	4.46376
268.327	4.43498
268.545	0.90659
268.763	3.93479
268.982	1.46481
269.2	4.39971
269.418	3.04845
269.636	1.85889
269.854	4.88043
270.073	3.38
270.291	1.94177
270.509	1.8293
270.727	4.47947
270.945	7.54967
271.163	7.36616
271.381	1.66581
271.599	3.33389
271.817	5.737
272.036	1.81044
272.254	3.03279
272.472	2.64427
272.69	2.64505
272.908	2.41853
273.126	4.52146
273.344	5.49577
273.562	1.95911
273.779	2.46471
273.997	3.68851
274.215	4.35392
274.433	2.97004
274.651	4.63736
274.869	4.90317
275.087	2.89973
275.305	3.98836
275.523	2.59114
275.74	3.00289
275.958	5.50792
276.176	8.59539
276.394	2.66934
276.612	3.23756
276.829	3.38175
277.047	2.82378
277.265	3.07325
277.483	3.53373
277.7	4.32764
277.918	3.3427
278.136	6.55341
278.353	2.84235
278.571	1.79026
278.789	4.46147
279.006	0.87447
279.224	2.96595
279.442	5.18014
279.659	3.43587
279.877	2.45592
280.094	6.12271
280.312	1.11081
280.529	3.53658
280.747	0.94997
280.964	2.78641
281.182	6.20838
281.399	2.91852
281.617	4.0233
281.834	2.60748
282.052	1.9576
282.269	3.33666
282.487	2.63552
282.704	2.19714
282.921	2.21695
283.139	3.33405
283.356	4.17884
283.574	4.01808
283.791	1.91005
284.008	5.82217
284.226	3.10287
284.443	3.35383
284.66	4.57663
284.877	3.57011
285.095	2.15996
285.312	1.60801
285.529	0.83877
285.746	0.85372
285.964	2.071
286.181	1.39631
286.398	2.04631
286.615	2.82063
286.832	2.70319
287.05	0.54356
287.267	1.90396
287.484	1.81636
287.701	2.63661
287.918	2.52223
288.135	2.64111
288.352	1.30121
288.569	1.44116
288.786	2.37136
289.003	2.0589
289.22	3.09066
289.437	1.70971
289.654	3.0016
289.871	3.12442
290.088	3.04974
290.305	2.33462
290.522	1.81282
290.739	2.12224
290.956	3.27165
291.173	3.7606
291.39	3.46392
291.607	2.48121
291.824	1.65715
292.04	1.24653
292.257	2.95833
292.474	3.29938
292.691	1.9484
292.908	0.97296
293.125	1.74609
293.341	1.12323
293.558	5.06138
293.775	1.92996
293.992	2.01708
294.208	0.88053
294.425	1.20133
294.642	1.9419
294.858	2.84385
295.075	0.61574
295.292	2.01996
295.508	2.39644
295.725	4.212
295.942	1.65769
296.158	1.21446
296.375	2.03238
296.591	1.45949
296.808	1.67813
297.024	2.02698
297.241	2.2568
297.458	2.44302
297.674	0.10903
297.891	1.94859
298.107	1.43087
298.323	1.13856
298.54	3.11783
298.756	1.28841
298.973	0.64215
299.189	3.17713
299.406	1.27422
299.622	2.78395
299.838	2.72665
300.055	2.62148
300.271	0.45666
300.487	0.9828
300.704	1.26289
300.92	0.71404
301.136	4.41995
301.353	2.63229
301.569	1.85672
301.785	2.20735
302.001	2.6963
302.218	2.20866
302.434	2.28441
302.65	0.72017
302.866	1.54673
303.083	3.90578
303.299	3.82657
303.515	1.93662
303.731	2.10412
303.947	0.58214
304.163	1.32023
304.379	2.05564
304.595	2.41857
304.812	1.19169
305.028	1.17211
305.244	1.81233
305.46	2.68456
305.676	2.5474
305.892	3.25111
306.108	2.23852
306.324	1.58129
306.54	3.62392
306.756	2.4933
306.972	2.4435
307.187	1.75476
307.403	3.44646
307.619	1.61484
307.835	3.11423
308.051	3.50284
308.267	0.93446
308.483	2.92501
308.699	2.44966
308.914	1.93685
309.13	1.83721
309.346	0.56792
309.562	0.96172
309.778	0.68183
309.993	2.46165
310.209	1.96052
310.425	0.87037
310.641	1.68937
310.856	0.97282
311.072	0.86653
311.288	1.82779
311.503	1.94745
311.719	0.32713
311.935	0.15384
312.15	2.21779
312.366	1.81546
312.581	2.23567
312.797	1.74878
313.013	2.61199
313.228	1.17538
313.444	1.80721
313.659	1.3275
313.875	2.3305
314.09	1.83125
314.306	3.25767
314.521	2.68805
314.737	2.595
314.952	1.90851
315.168	1.88915
315.383	2.20151
315.599	1.79066
315.814	1.4719
316.029	2.55031
316.245	0.68973
316.46	0.55898
316.675	3.08359
316.891	3.4967
317.106	4.58654
317.321	2.2592
317.537	2.39866
317.752	2.71885
317.967	2.63464
318.183	1.17167
318.398	1.60924
318.613	2.72341
318.828	3.27638
319.043	2.75543
319.259	1.73144
319.474	2.20591
319.689	3.17951
319.904	0.51348
320.119	2.65083
320.334	2.28751
320.549	1.61882
320.765	2.90779
320.98	2.18965
321.195	2.66335
321.41	1.83821
321.625	2.69665
321.84	3.83228
322.055	3.67028
322.27	1.29641
322.485	1.12498
322.7	2.28596
322.915	2.80182
323.13	1.10201
323.345	3.22994
323.56	2.99217
323.775	2.66006
323.989	2.34542
324.204	2.2622
324.419	2.99873
324.634	0.92133
324.849	1.83788
325.064	4.95283
325.279	2.84194
325.493	2.36981
325.708	2.85592
325.923	1.31514
326.138	1.3388
326.352	3.53326
326.567	2.92787
326.782	1.5764
326.997	1.33193
327.211	2.53535
327.426	2.29964
327.641	1.47222
327.855	0.68076
328.07	2.23388
328.285	3.54539
328.499	1.57057
328.714	2.29709
328.928	2.62414
329.143	1.87479
329.358	2.74758
329.572	3.0496
329.787	2.99485
330.001	4.27438
330.216	0.85793
330.43	3.76151
330.645	3.67316
330.859	2.95704
331.074	1.45128
331.288	2.23775
331.503	3.14297
331.717	1.02431
331.931	2.11765
332.146	2.05737
332.36	3.67643
332.575	2.42066
332.789	2.3596
333.003	2.05714
333.218	2.46377
333.432	1.44566
333.646	2.78167
333.86	3.48827
334.075	3.42338
334.289	1.52712
334.503	1.16947
334.717	2.19941
334.932	2.45868
335.146	3.25149
335.36	1.77483
335.574	2.58572
335.788	2.4785
336.003	2.97713
336.217	2.50685
336.431	2.59723
336.645	1.44797
336.859	0.92735
337.073	1.74312
337.287	2.28957
337.501	1.07515
337.715	2.30449
337.929	2.75509
338.143	1.11082
338.357	1.87414
338.571	1.23651
338.785	2.403
338.999	1.63369
339.213	1.50494
339.427	0.70238
339.641	3.197
339.855	1.72995
340.069	1.56931
340.283	2.94247
340.497	3.78569
340.711	2.2667
340.924	1.70434
341.138	1.02964
341.352	0.79113
341.566	2.23079
341.78	0.46735
341.993	1.58194
342.207	1.08182
342.421	2.17114
342.635	1.76085
342.848	1.44719
343.062	0.21729
343.276	1.32972
343.49	3.79378
343.703	1.41626
343.917	2.83212
344.131	2.69787
344.344	1.32689
344.558	1.64389
344.771	1.02252
344.985	3.34565
345.199	3.20587
345.412	2.13494
345.626	2.12871
345.839	0.63313
346.053	0.86762
346.266	0.97713
346.48	2.49873
346.693	2.22544
346.907	2.10286
347.12	1.12454
347.334	2.25667
347.547	2.15283
347.76	1.60926
347.974	2.92005
348.187	2.19178
348.401	1.4364
348.614	1.38604
348.827	1.52984
349.041	2.30574
349.254	0.52684
349.467	1.55707
349.681	0.7658
349.894	1.32009
350.107	2.90318
350.32	3.23414
350.534	0.51363
350.747	1.43818
350.96	1.04797
351.173	1.29218
351.386	1.58138
351.6	1.40609
351.813	1.26396
352.026	1.62712
352.239	0.65177
352.452	1.49862
352.665	2.44536
352.878	1.68824
353.092	3.38537
353.305	2.35512
353.518	2.00512
353.731	1.08208
353.944	2.73366
354.157	1.21993
354.37	0.9556
354.583	1.03524
354.796	0.30883
355.009	2.59251
355.222	1.94757
355.435	1.83086
355.647	2.44738
355.86	0.91828
356.073	1.65312
356.286	1.20747
356.499	2.19262
356.712	1.85752
356.925	2.15787
357.138	2.28455
357.35	0.91965
357.563	1.4541
357.776	1.71877
357.989	1.24397
358.201	1.99151
358.414	1.66571
358.627	2.65607
358.84	1.37581
359.052	0.71027
359.265	0.89392
359.478	2.41205
359.69	-0.29067
359.903	2.00835
360.116	2.15369
360.328	0.30681
360.541	2.17047
360.753	0.68302
360.966	1.05202
361.179	1.16216
361.391	1.06258
361.604	0.73278
361.816	1.1199
362.029	0.90718
362.241	0.78086
362.454	0.9567
362.666	0.74159
362.879	1.43637
363.091	1.09669
363.304	0.80491
363.516	1.32559
363.728	0.66283
363.941	1.76936
364.153	1.02212
364.366	-0.11798
364.578	0.59738
364.79	1.69535
365.003	1.25182
365.215	0.94685
365.427	1.67957
365.639	2.22353
365.852	1.5692
366.064	3.18643
366.276	1.09898
366.488	1.71964
366.701	1.12657
366.913	1.30469
367.125	1.18508
367.337	0.73698
367.549	1.08221
367.762	1.55849
367.974	1.47008
368.186	0.75467
368.398	2.06467
368.61	1.87813
368.822	1.89819
369.034	1.44469
369.246	1.71644
369.458	3.53853
369.67	0.76665
369.882	2.81464
370.094	0.14682
370.306	2.73475
370.518	1.2436
370.73	0.83974
370.942	0.78454
371.154	1.19409
371.366	0.89191
371.578	1.52444
371.79	0.6865
372.002	2.21912
372.214	2.66564
372.425	1.44227
372.637	2.16987
372.849	1.59012
373.061	-0.03674
373.273	1.6529
373.484	1.55958
373.696	2.00967
373.908	-0.02649
374.12	2.18512
374.331	1.5273
374.543	0.82043
374.755	0.6643
374.967	1.48786
375.178	1.76025
375.39	1.13722
375.602	1.42048
375.813	0.43455
376.025	0.48138
376.236	1.40016
376.448	1.46059
376.66	0.88633
376.871	0.9209
377.083	2.28125
377.294	2.16178
377.506	0.96738
377.717	2.17207
377.929	1.45162
378.14	0.70751
378.352	1.56878
378.563	1.42942
378.775	2.26166
378.986	0.72193
379.197	1.29237
379.409	0.92654
379.62	1.82696
379.832	1.65927
380.043	1.12772
380.254	1.28258
380.466	0.48476
380.677	3.31699
380.888	2.75982
381.1	3.03565
381.311	2.83443
381.522	1.21987
381.733	3.32596
381.945	1.07451
382.156	1.4343
382.367	0.88346
382.578	3.30657
382.789	3.1101
383.001	1.03791
383.212	2.17601
383.423	2.2877
383.634	2.0929
383.845	1.57862
384.056	1.00333
384.267	1.36003
384.478	1.17811
384.69	0.51154
384.901	1.54601
385.112	1.43784
385.323	2.30123
385.534	1.58169
385.745	1.40869
385.956	1.54713
386.167	0.57044
386.378	1.61291
386.588	0.50339
386.799	0.84742
387.01	0.1447
387.221	1.83156
387.432	1.06866
387.643	2.52744
387.854	1.1802
388.065	1.04309
388.275	1.16399
388.486	0.97254
388.697	1.08759
388.908	1.01315
389.119	2.07696
389.329	2.29143
389.54	1.33138
389.751	1.46395
389.962	2.10365
390.172	1.53109
390.383	0.84422
390.594	0.85696
390.804	0.7996
391.015	0.89157
391.226	1.29671
391.436	1.51471
391.647	1.45201
391.858	1.67502
392.068	0.14833
392.279	0.47979
392.489	1.2137
392.7	2.07647
392.91	0.53766
393.121	0.79198
393.331	1.5017
393.542	2.01663
393.752	1.25344
393.963	1.43809
394.173	1.24266
394.384	1.67188
394.594	1.25293
394.804	0.52588
395.015	1.30776
395.225	1.55322
395.436	0.58827
395.646	1.63555
395.856	0.68849
396.067	0.42215
396.277	1.95638
396.487	1.54012
396.697	1.32471
396.908	1.62946
397.118	1.65874
397.328	1.4355
397.538	2.00698
397.749	0.81172
397.959	1.82496
398.169	1.70555
398.379	0.45948
398.589	1.85071
398.8	1.37713
399.01	1.13154
399.22	1.10304
399.43	2.83335
399.64	1.13465
399.85	1.79086
400.06	1.2761
400.27	0.87321
400.48	1.32795
400.69	2.53339
400.9	0.9958
401.11	0.81391
401.32	1.97673
401.53	1.14488
401.74	2.51076
401.95	1.82482
402.16	0.61305
402.37	1.64783
402.58	0.99362
402.79	1.91404
403	2.17287
403.209	1.00013
403.419	2.01115
403.629	0.97033
403.839	1.99899
404.049	1.94192
404.258	0.95329
404.468	0.89874
404.678	1.69627
404.888	2.00111
405.097	0.7951
405.307	1.34305
405.517	1.7984
405.727	1.56482
405.936	1.19107
406.146	1.54652
406.356	2.24686
406.565	1.43227
406.775	1.05741
406.984	1.08554
407.194	2.56527
407.404	1.53763
407.613	1.84903
407.823	2.08232
408.032	2.11231
408.242	2.3002
408.451	1.14201
408.661	1.51655
408.87	2.76384
409.08	1.20171
409.289	1.78147
409.499	1.65349
409.708	1.7135
409.918	0.43234
410.127	1.59342
410.336	2.57183
410.546	1.99697
410.755	1.3037
410.964	1.38353
411.174	1.11725
411.383	1.94035
411.592	1.96548
411.802	1.00054
412.011	2.24187
412.22	1.59504
412.429	2.7817
412.639	2.61703
412.848	2.48497
413.057	2.53962
413.266	2.57362
413.475	1.7587
413.685	2.16075
413.894	2.34922
414.103	2.55927
414.312	2.3092
414.521	1.71926
414.73	1.80887
414.939	3.20324
415.148	2.20789
415.357	1.9942
415.566	1.56686
415.776	1.62946
415.985	1.52598
416.194	2.29199
416.403	2.83251
416.611	1.00746
416.82	1.36269
417.029	1.77276
417.238	1.38558
417.447	1.17992
417.656	1.43032
417.865	1.24778
418.074	1.40916
418.283	1.58624
418.492	2.0613
418.7	1.97957
418.909	2.55265
419.118	1.89422
419.327	2.01396
419.536	1.83522
419.744	1.43573
419.953	2.48156
420.162	2.46311
420.371	1.57768
420.579	1.52803
420.788	2.52953
420.997	2.38101
421.205	2.45581
421.414	2.25346
421.623	2.22086
421.831	1.90987
422.04	2.57205
422.249	1.84478
422.457	2.45646
422.666	1.79181
422.874	2.71694
423.083	2.69517
423.291	2.66781
423.5	2.19734
423.708	2.5424
423.917	2.829
424.125	2.45564
424.334	2.12182
424.542	3.77308
424.751	3.1293
424.959	2.91727
425.167	3.24633
425.376	3.09809
425.584	2.43481
425.793	2.61366
426.001	1.94123
426.209	2.61965
426.418	1.84483
426.626	1.99297
426.834	1.78585
427.042	2.19854
427.251	1.87142
