Data from WindowProjectSample_Transmission__95__00095.txt Node

Date: Sat May 03 18:28:23 EDT 2025
User: jessi
Spectrometer: SR400872
Trigger mode: 0
Integration Time (sec): 5.000050E-1
Scans to average: 10
Electric dark correction enabled: true
Nonlinearity correction enabled: true
Boxcar width: 0
XAxis mode: Wavelengths
Number of Pixels in Spectrum: 3648
>>>>>Begin Spectral Data<<<<<
184.909	-5447.4784
185.132	12143.5429
185.355	-13268.32984
185.578	79279.71544
185.801	-1022.24592
186.024	6014.86656
186.247	-9429.54364
186.47	-6928.28256
186.693	2955.16044
186.916	-1225.78297
187.139	30819.69916
187.362	13157.55222
187.585	-3305.57545
187.808	-4640.20292
188.031	277.19204
188.254	10922.50227
188.476	-583.91374
188.699	-4815.18504
188.922	533.3266
189.145	5683.58172
189.368	2223.39998
189.591	983.13668
189.813	12600.39889
190.036	-65608.88562
190.259	1816.82578
190.482	2408.51126
190.705	5998.34238
190.927	4679.33475
191.15	3819.46298
191.373	6706.85677
191.595	1476.40212
191.818	2920.84557
192.041	482.24426
192.263	3499.49525
192.486	970.97702
192.709	7971.52965
192.931	36973.88658
193.154	3342.0534
193.377	2277.27051
193.599	1786.32998
193.822	915.79273
194.044	1745.79699
194.267	1707.35452
194.489	-307.36069
194.712	2843.10451
194.934	7329.14175
195.157	-11035.30414
195.379	1919.89789
195.602	18822.36414
195.824	4016.45613
196.047	1023.74694
196.269	4976.7373
196.492	28055.83432
196.714	2693.88706
196.936	3488.45735
197.159	5836.10743
197.381	3399.94149
197.604	425.03484
197.826	1912.96375
198.048	1139.37817
198.271	3073.04268
198.493	4006.07072
198.715	5994.33454
198.938	619.08036
199.16	1521.85107
199.382	4823.80718
199.604	-33113.01607
199.827	2616.40914
200.049	1119.13462
200.271	2450.90528
200.493	8380.82499
200.715	3104.44735
200.938	70458.72484
201.16	1910.44784
201.382	2561.84101
201.604	1900.91445
201.826	5288.64582
202.048	1265.46769
202.27	4477.38516
202.492	1766.37033
202.715	1495.65672
202.937	-32069.54533
203.159	5295.55057
203.381	2239.35036
203.603	8406.25541
203.825	1408.80618
204.047	1685.49965
204.269	2129.60885
204.491	1807.33214
204.713	1415.66469
204.935	2102.99639
205.156	1262.66983
205.378	2007.24231
205.6	1511.79856
205.822	8172.3873
206.044	991.08107
206.266	1281.918
206.488	2894.60869
206.71	5127.94834
206.932	1733.92215
207.153	4965.6774
207.375	1181.03579
207.597	4516.28151
207.819	1366.54751
208.041	3398.87487
208.262	1021.92539
208.484	3165.16289
208.706	1217.98966
208.927	2654.00643
209.149	1523.35761
209.371	2345.83671
209.593	310.71619
209.814	5470.67748
210.036	17220.90082
210.258	814.00753
210.479	1283.39308
210.701	2237.48716
210.922	2176.87686
211.144	1699.6198
211.366	2859.55072
211.587	700.27605
211.809	2726.71571
212.03	2071.89951
212.252	513.98247
212.473	1169.27765
212.695	755.48415
212.916	1549.13828
213.138	524.87785
213.359	3606.84499
213.581	1675.0483
213.802	-3448.41113
214.024	2897.5971
214.245	1180.37241
214.466	613.42757
214.688	1517.46858
214.909	1944.92352
215.131	2708.68216
215.352	1036.19589
215.573	3810.48609
215.795	2350.05967
216.016	3189.23307
216.237	765.05552
216.459	2983.53412
216.68	12546.67266
216.901	1441.36593
217.122	1080.06199
217.344	1593.27447
217.565	3876.19452
217.786	2177.85302
218.007	982.07571
218.228	3134.92921
218.45	2136.61958
218.671	755.78317
218.892	1340.62839
219.113	922.1321
219.334	-254.05313
219.555	1462.00273
219.776	1503.8311
219.997	4097.52708
220.219	1973.3372
220.44	682.3391
220.661	554.65495
220.882	1154.32138
221.103	720.11629
221.324	833.6233
221.545	1171.76816
221.766	1591.34232
221.987	472.41148
222.208	696.79893
222.429	1307.54382
222.65	168.15654
222.87	320.84407
223.091	598.1108
223.312	491.02777
223.533	634.63465
223.754	1887.01537
223.975	1143.3035
224.196	578.09252
224.417	663.62997
224.637	340.40531
224.858	36.38842
225.079	429.11311
225.3	467.6353
225.521	1250.65947
225.741	317.45761
225.962	372.34497
226.183	103.54733
226.404	512.31473
226.624	357.64267
226.845	347.08661
227.066	288.83082
227.286	197.3152
227.507	95.44465
227.728	97.50556
227.948	178.33906
228.169	60.85553
228.389	68.11813
228.61	40.00804
228.831	54.43817
229.051	3.87966
229.272	32.4828
229.492	47.90743
229.713	13.96868
229.933	35.64275
230.154	28.24795
230.374	49.07422
230.595	36.387
230.815	20.08027
231.036	36.38902
231.256	-5.60628
231.477	60.19598
231.697	34.21519
231.917	34.86973
232.138	46.32385
232.358	101.42911
232.579	89.22311
232.799	17.4005
233.019	82.83453
233.24	98.94727
233.46	40.15177
233.68	60.96614
233.901	42.21442
234.121	25.62062
234.341	11.95773
234.561	-1.32108
234.782	22.16693
235.002	63.75115
235.222	-3.85609
235.442	54.57911
235.662	29.07186
235.883	57.36724
236.103	51.5594
236.323	35.56121
236.543	28.46424
236.763	40.46947
236.983	38.92812
237.203	40.69721
237.423	57.66233
237.643	83.69859
237.864	72.9789
238.084	19.70743
238.304	24.04627
238.524	43.80652
238.744	37.60815
238.964	61.45157
239.184	59.06001
239.404	62.36573
239.624	34.05995
239.843	56.97087
240.063	33.80759
240.283	22.66762
240.503	25.41438
240.723	24.70658
240.943	13.85765
241.163	18.8173
241.383	14.75445
241.603	8.02925
241.822	10.23156
242.042	6.91945
242.262	9.16264
242.482	9.8922
242.702	11.26158
242.921	3.77043
243.141	7.31926
243.361	6.85355
243.581	10.47884
243.8	8.12882
244.02	5.76916
244.24	9.6833
244.459	9.93431
244.679	19.05829
244.899	12.42818
245.118	14.76184
245.338	12.4928
245.558	15.42071
245.777	8.86179
245.997	10.41792
246.216	10.90655
246.436	6.40692
246.655	4.73532
246.875	3.19807
247.094	6.7218
247.314	2.44799
247.533	4.0727
247.753	4.87039
247.972	4.03868
248.192	1.49925
248.411	2.43464
248.631	3.9956
248.85	4.9888
249.07	4.48823
249.289	7.06961
249.508	5.37541
249.728	8.58385
249.947	8.32804
250.166	9.27335
250.386	5.22413
250.605	7.47786
250.824	11.81763
251.044	9.31455
251.263	25.59702
251.482	14.99993
251.701	12.27606
251.921	0.86687
252.14	4.16218
252.359	4.92095
252.578	11.26079
252.798	3.98457
253.017	9.78367
253.236	5.39269
253.455	6.69275
253.674	12.66077
253.893	6.08085
254.112	8.2516
254.331	11.85125
254.551	11.31323
254.77	4.25281
254.989	14.7857
255.208	11.83571
255.427	16.02477
255.646	13.20173
255.865	23.10455
256.084	8.30075
256.303	11.0196
256.522	14.45246
256.741	4.36341
256.96	2.73065
257.179	8.77538
257.397	11.91416
257.616	6.57178
257.835	7.26066
258.054	16.53471
258.273	10.97989
258.492	12.1954
258.711	7.49742
258.93	3.37467
259.148	4.65017
259.367	5.27089
259.586	6.40424
259.805	2.71881
260.023	5.44745
260.242	4.08308
260.461	3.00936
260.68	1.75859
260.898	4.96313
261.117	1.74682
261.336	1.27985
261.554	4.04312
261.773	4.32916
261.992	0.94217
262.21	3.96258
262.429	4.20677
262.648	7.72835
262.866	8.72994
263.085	6.43246
263.303	5.42633
263.522	9.95913
263.74	9.67718
263.959	16.41101
264.178	8.29587
264.396	6.88014
264.615	5.30971
264.833	12.29425
265.051	10.46674
265.27	11.30024
265.488	12.31123
265.707	7.20601
265.925	12.18116
266.144	5.21841
266.362	6.46398
266.58	6.47704
266.799	5.77834
267.017	6.53858
267.235	5.91111
267.454	4.07526
267.672	2.22621
267.89	5.02558
268.109	4.98836
268.327	5.23811
268.545	1.47451
268.763	4.44496
268.982	2.29681
269.2	5.43413
269.418	3.59467
269.636	2.75702
269.854	4.90707
270.073	4.03659
270.291	2.16997
270.509	2.26555
270.727	4.90314
270.945	8.52131
271.163	7.93366
271.381	1.87363
271.599	3.29143
271.817	5.89436
272.036	2.11924
272.254	3.51769
272.472	3.06201
272.69	2.56629
272.908	2.75987
273.126	4.62995
273.344	5.84329
273.562	2.2376
273.779	2.91811
273.997	4.65814
274.215	4.57475
274.433	3.54672
274.651	5.17879
274.869	5.38006
275.087	3.24757
275.305	4.70478
275.523	3.05761
275.74	3.35934
275.958	6.29137
276.176	9.13969
276.394	2.97296
276.612	3.73068
276.829	3.49145
277.047	3.27651
277.265	3.35892
277.483	4.25321
277.7	4.70561
277.918	3.91573
278.136	7.12584
278.353	3.61693
278.571	2.06618
278.789	5.62738
279.006	1.35282
279.224	3.39441
279.442	5.13993
279.659	3.8626
279.877	2.65939
280.094	6.03857
280.312	0.96954
280.529	3.96656
280.747	1.41136
280.964	3.0474
281.182	6.47208
281.399	3.07198
281.617	3.99083
281.834	2.83636
282.052	2.64553
282.269	3.57141
282.487	3.10398
282.704	2.58182
282.921	2.40255
283.139	3.82835
283.356	4.83323
283.574	4.30091
283.791	2.18685
284.008	5.81338
284.226	3.3417
284.443	3.78379
284.66	4.98068
284.877	3.8744
285.095	2.4204
285.312	1.87493
285.529	1.15588
285.746	0.88744
285.964	2.51568
286.181	1.60802
286.398	2.30508
286.615	3.03305
286.832	3.01555
287.05	0.74777
287.267	2.15641
287.484	2.09964
287.701	3.14634
287.918	2.93398
288.135	3.0008
288.352	1.23629
288.569	1.69496
288.786	2.78268
289.003	2.28076
289.22	3.14186
289.437	1.82162
289.654	3.28497
289.871	3.44559
290.088	3.32097
290.305	2.5919
290.522	2.00103
290.739	2.37751
290.956	3.65722
291.173	4.16387
291.39	3.82344
291.607	2.74048
291.824	2.17665
292.04	1.3904
292.257	3.31253
292.474	3.697
292.691	2.35767
292.908	1.137
293.125	1.96159
293.341	1.34701
293.558	5.51233
293.775	2.38583
293.992	2.2722
294.208	1.04254
294.425	1.50452
294.642	2.21056
294.858	3.11229
295.075	0.7896
295.292	2.37826
295.508	2.74014
295.725	4.02449
295.942	2.0959
296.158	1.42285
296.375	2.21184
296.591	1.82387
296.808	1.89368
297.024	2.06763
297.241	2.49107
297.458	2.6153
297.674	0.30868
297.891	2.08175
298.107	1.56429
298.323	1.19878
298.54	3.07505
298.756	1.5074
298.973	0.85881
299.189	3.1417
299.406	1.28966
299.622	3.23577
299.838	3.20725
300.055	2.83428
300.271	0.84774
300.487	0.98135
300.704	1.41311
300.92	1.02718
301.136	4.36948
301.353	3.26344
301.569	2.19312
301.785	2.45819
302.001	2.88639
302.218	2.57931
302.434	2.63645
302.65	0.77375
302.866	1.81016
303.083	4.43304
303.299	4.1917
303.515	2.31034
303.731	2.44859
303.947	0.7375
304.163	1.66881
304.379	2.24367
304.595	2.74903
304.812	1.45407
305.028	1.46344
305.244	1.73308
305.46	2.8883
305.676	3.17058
305.892	3.69716
306.108	2.55623
306.324	1.71813
306.54	4.12282
306.756	2.81353
306.972	2.64635
307.187	1.96615
307.403	3.7772
307.619	1.77723
307.835	3.28515
308.051	3.49834
308.267	1.1589
308.483	3.03939
308.699	2.57564
308.914	2.38525
309.13	2.29558
309.346	0.66078
309.562	1.13892
309.778	0.63009
309.993	2.84612
310.209	1.91757
310.425	1.05105
310.641	1.75587
310.856	1.01169
311.072	1.03548
311.288	2.09282
311.503	2.20986
311.719	0.49343
311.935	0.39641
312.15	2.33265
312.366	2.02822
312.581	2.53805
312.797	2.08391
313.013	2.72043
313.228	1.57704
313.444	2.20043
313.659	1.39951
313.875	2.4703
314.09	1.90737
314.306	3.39855
314.521	2.9809
314.737	2.85069
314.952	2.41984
315.168	2.04388
315.383	2.68151
315.599	1.95898
315.814	1.72874
316.029	3.16594
316.245	0.78982
316.46	0.73797
316.675	3.55604
316.891	4.25974
317.106	5.08167
317.321	2.70939
317.537	2.60833
317.752	2.94966
317.967	3.14678
318.183	1.46976
318.398	1.81469
318.613	3.26235
318.828	3.51006
319.043	3.02574
319.259	1.8759
319.474	2.62887
319.689	3.45742
319.904	0.56358
320.119	3.08759
320.334	2.51544
320.549	1.95101
320.765	3.4033
320.98	2.38952
321.195	3.00092
321.41	1.98728
321.625	3.14139
321.84	4.18613
322.055	4.00021
322.27	1.49465
322.485	1.26918
322.7	2.48556
322.915	3.28234
323.13	1.39967
323.345	3.67534
323.56	3.01156
323.775	2.82406
323.989	2.9072
324.204	2.44004
324.419	3.01144
324.634	1.02139
324.849	2.19563
325.064	4.25902
325.279	3.15337
325.493	2.80122
325.708	3.30961
325.923	1.44303
326.138	1.5858
326.352	3.87207
326.567	3.1567
326.782	1.75923
326.997	1.52168
327.211	2.89856
327.426	2.8017
327.641	1.87024
327.855	0.65304
328.07	2.65327
328.285	3.92698
328.499	1.92212
328.714	2.62342
328.928	3.03081
329.143	2.02048
329.358	3.20879
329.572	3.41553
329.787	3.39821
330.001	4.75245
330.216	1.01035
330.43	3.81195
330.645	3.97625
330.859	2.92694
331.074	1.78962
331.288	2.5271
331.503	3.46849
331.717	1.39662
331.931	2.04683
332.146	2.43067
332.36	4.18933
332.575	2.83407
332.789	2.68739
333.003	2.01666
333.218	2.82697
333.432	2.09756
333.646	2.84978
333.86	3.77144
334.075	3.8717
334.289	1.83149
334.503	1.33065
334.717	2.70743
334.932	2.63909
335.146	3.4349
335.36	1.93332
335.574	2.95028
335.788	2.79053
336.003	3.28743
336.217	2.85619
336.431	2.86055
336.645	1.71666
336.859	1.19152
337.073	1.98593
337.287	2.45302
337.501	1.38618
337.715	2.56213
337.929	2.98109
338.143	1.31526
338.357	2.32758
338.571	1.47296
338.785	2.67754
338.999	1.93085
339.213	1.70774
339.427	0.94652
339.641	3.23925
339.855	2.06468
340.069	1.85424
340.283	3.22008
340.497	3.94298
340.711	2.56799
340.924	1.90798
341.138	1.10035
341.352	1.05883
341.566	2.4165
341.78	0.61646
341.993	1.72995
342.207	1.28229
342.421	2.34129
342.635	2.27703
342.848	1.81664
343.062	0.272
343.276	1.56562
343.49	4.09484
343.703	1.45201
343.917	2.8503
344.131	3.03576
344.344	1.51688
344.558	1.7433
344.771	1.3895
344.985	3.23254
345.199	3.6946
345.412	2.38277
345.626	2.37221
345.839	0.72494
346.053	1.12156
346.266	1.25518
346.48	2.79465
346.693	2.41943
346.907	2.53919
347.12	1.41424
347.334	2.42171
347.547	2.55779
347.76	1.92108
347.974	3.28898
348.187	2.53858
348.401	1.85993
348.614	1.56847
348.827	1.8196
349.041	2.75002
349.254	0.63328
349.467	2.04943
349.681	1.07217
349.894	1.67732
350.107	3.20157
350.32	3.55818
350.534	0.63449
350.747	1.61679
350.96	1.28593
351.173	1.49204
351.386	1.65395
351.6	1.67902
351.813	1.48175
352.026	2.00189
352.239	0.87015
352.452	1.81783
352.665	2.70902
352.878	1.79126
353.092	3.91306
353.305	2.5183
353.518	2.15884
353.731	1.28364
353.944	3.19385
354.157	1.35948
354.37	1.13701
354.583	1.20677
354.796	0.59677
355.009	2.91749
355.222	2.01319
355.435	2.08083
355.647	2.88011
355.86	1.03389
356.073	1.87032
356.286	1.55114
356.499	2.4861
356.712	2.12581
356.925	2.38117
357.138	2.69717
357.35	1.06888
357.563	1.52953
357.776	1.94799
357.989	1.51934
358.201	2.35677
358.414	1.84235
358.627	2.73499
358.84	1.65722
359.052	1.04936
359.265	0.83611
359.478	2.69284
359.69	-0.31733
359.903	2.39807
360.116	2.42166
360.328	0.40748
360.541	2.36756
360.753	0.97988
360.966	1.2469
361.179	1.3532
361.391	1.23901
361.604	0.79582
361.816	1.21611
362.029	1.09957
362.241	0.90717
362.454	0.99905
362.666	0.98966
362.879	1.49315
363.091	1.34328
363.304	0.83333
363.516	1.48072
363.728	0.60887
363.941	1.94948
364.153	1.03593
364.366	-0.21148
364.578	0.81957
364.79	2.05196
365.003	1.46204
365.215	1.20542
365.427	1.93441
365.639	2.48886
365.852	1.79601
366.064	3.13501
366.276	1.18679
366.488	1.8846
366.701	1.2428
366.913	1.5491
367.125	1.55875
367.337	1.25008
367.549	1.14479
367.762	1.75743
367.974	1.71331
368.186	0.90234
368.398	2.3812
368.61	2.0276
368.822	2.12195
369.034	1.61754
369.246	2.06223
369.458	3.44685
369.67	0.73921
369.882	3.17265
370.094	0.20917
370.306	2.92305
370.518	1.49775
370.73	1.10344
370.942	0.99072
371.154	1.27034
371.366	1.08623
371.578	1.79085
371.79	0.81957
372.002	2.54892
372.214	2.87592
372.425	1.68382
372.637	2.5004
372.849	1.82612
373.061	-0.00022
373.273	1.92728
373.484	1.98184
373.696	2.23828
373.908	-0.09204
374.12	2.46499
374.331	1.91907
374.543	0.78141
374.755	0.97591
374.967	1.6504
375.178	2.16663
375.39	1.39729
375.602	1.60105
375.813	0.63647
376.025	0.58479
376.236	1.54279
376.448	1.67043
376.66	1.07061
376.871	1.183
377.083	2.25345
377.294	2.35411
377.506	1.01785
377.717	2.46749
377.929	1.5903
378.14	0.70908
378.352	1.87727
378.563	1.73711
378.775	2.35662
378.986	0.97638
379.197	1.49927
379.409	1.08295
379.62	2.14355
379.832	1.79313
380.043	1.32354
380.254	1.5769
380.466	0.60488
380.677	3.54172
380.888	3.25921
381.1	3.30488
381.311	3.21473
381.522	1.39316
381.733	3.76106
381.945	1.31265
382.156	1.64341
382.367	1.08941
382.578	3.62985
382.789	3.42309
383.001	1.267
383.212	2.35359
383.423	2.51865
383.634	2.36993
383.845	1.72755
384.056	1.255
384.267	1.51175
384.478	1.36139
384.69	0.71221
384.901	1.88467
385.112	1.87373
385.323	2.55171
385.534	1.78436
385.745	1.64815
385.956	1.77295
386.167	0.69905
386.378	1.77448
386.588	0.48237
386.799	0.94958
387.01	0.2772
387.221	2.04441
387.432	1.31452
387.643	2.77937
387.854	1.31395
388.065	1.19896
388.275	1.387
388.486	1.15026
388.697	1.33327
388.908	1.18672
389.119	2.30719
389.329	2.7077
389.54	1.59963
389.751	1.63249
389.962	2.28495
390.172	1.60057
390.383	1.03256
390.594	0.90862
390.804	1.01052
391.015	0.87432
391.226	1.42503
391.436	1.76676
391.647	1.66636
391.858	1.83295
392.068	0.18675
392.279	0.57745
392.489	1.37943
392.7	2.22833
392.91	0.58124
393.121	0.84015
393.331	1.71034
393.542	2.22983
393.752	1.80868
393.963	1.43014
394.173	1.35822
394.384	1.85465
394.594	1.30074
394.804	0.60187
395.015	1.45342
395.225	1.74775
395.436	0.49906
395.646	1.87488
395.856	0.77101
396.067	0.4909
396.277	2.17911
396.487	1.67137
396.697	1.33674
396.908	2.15838
397.118	2.03491
397.328	1.52228
397.538	2.24499
397.749	0.89532
397.959	2.02299
398.169	1.98216
398.379	0.49401
398.589	2.04788
398.8	1.44863
399.01	1.28173
399.22	1.36464
399.43	3.13233
399.64	1.15983
399.85	1.8729
400.06	1.32349
400.27	1.01898
400.48	1.47727
400.69	2.62117
400.9	1.15454
401.11	0.98653
401.32	2.26874
401.53	1.12104
401.74	2.6292
401.95	2.05428
402.16	0.84363
402.37	1.84047
402.58	0.95874
402.79	2.00994
403	2.16042
403.209	1.11743
403.419	1.99223
403.629	1.11801
403.839	2.04311
404.049	2.05509
404.258	0.99586
404.468	0.83695
404.678	1.89515
404.888	1.89536
405.097	0.8768
405.307	1.3169
405.517	1.80635
405.727	1.60403
405.936	1.14859
406.146	1.62918
406.356	2.42571
406.565	1.51246
406.775	1.18217
406.984	1.12634
407.194	2.71189
407.404	1.55443
407.613	1.84047
407.823	2.03532
408.032	2.29331
408.242	2.30036
408.451	1.24064
408.661	1.38386
408.87	2.79024
409.08	1.21337
409.289	1.87803
409.499	1.71042
409.708	1.63615
409.918	0.19992
410.127	1.55876
410.336	2.59242
410.546	2.00925
410.755	1.32384
410.964	1.19429
411.174	1.00419
411.383	1.97694
411.592	1.98788
411.802	0.99584
412.011	2.22079
412.22	1.6175
412.429	2.65426
412.639	2.57713
412.848	2.46244
413.057	2.67192
413.266	2.48586
413.475	1.69483
413.685	2.29059
413.894	2.23749
414.103	2.46014
414.312	2.1664
414.521	1.61714
414.73	1.79162
414.939	3.05523
415.148	2.10906
415.357	1.91505
415.566	1.45907
415.776	1.48274
415.985	1.24435
416.194	2.31569
416.403	2.77963
416.611	0.82451
416.82	1.18155
417.029	1.61021
417.238	1.13377
417.447	0.97233
417.656	1.2555
417.865	1.01792
418.074	1.27943
418.283	1.56399
418.492	2.21315
418.7	2.07299
418.909	2.87242
419.118	1.83664
419.327	2.08024
419.536	1.8626
419.744	1.43047
419.953	2.5904
420.162	2.61319
420.371	1.36329
420.579	1.30978
420.788	2.40966
420.997	2.44392
421.205	2.35494
421.414	2.11718
421.623	2.07387
421.831	1.67029
422.04	2.57068
422.249	1.54709
422.457	2.28497
422.666	1.65605
422.874	2.76473
423.083	2.67331
423.291	2.54202
423.5	2.16463
423.708	2.469
423.917	2.85198
424.125	2.1693
424.334	1.96251
424.542	3.94326
424.751	2.9708
424.959	2.829
425.167	3.27741
425.376	3.06133
425.584	2.27832
425.793	2.58005
426.001	1.67203
426.209	2.67281
426.418	1.60478
426.626	1.82692
426.834	1.50022
427.042	1.94578
427.251	1.52875
427.459	2.38616
427.667	1.92733
427.875	1.13978
428.084	1.4341
