Data from WindowProjectSample3_Transmission__59__00059.txt Node

Date: Sun May 04 11:35:35 EDT 2025
User: jessi
Spectrometer: SR400872
Trigger mode: 0
Integration Time (sec): 5.000050E-1
Scans to average: 20
Electric dark correction enabled: true
Nonlinearity correction enabled: true
Boxcar width: 0
XAxis mode: Wavelengths
Number of Pixels in Spectrum: 3648
>>>>>Begin Spectral Data<<<<<
184.909	-1406.44235
185.132	-1287.12391
185.355	-1561.06319
185.578	-1534.89277
185.801	1370.21996
186.024	-1275.4389
186.247	-23711.14733
186.47	-2176.95953
186.693	-2106.89263
186.916	-445.24845
187.139	-978.06857
187.362	-1225.95311
187.585	-1128.93872
187.808	-1072.22413
188.031	707.49004
188.254	-1164.24392
188.476	-879.22475
188.699	-1005.44689
188.922	308.78557
189.145	-1021.92115
189.368	7025.9027
189.591	3801.57838
189.813	-4379.37126
190.036	-1334.4933
190.259	-7272.29914
190.482	-3512.90382
190.705	-2756.7126
190.927	-1921.02329
191.15	-1314.65348
191.373	-3574.42672
191.595	29765.18625
191.818	-3223.13572
192.041	-996.30521
192.263	-1619.98342
192.486	-925.30265
192.709	-1881.06335
192.931	-4689.38885
193.154	-1346.5309
193.377	-1608.72013
193.599	1249.87072
193.822	8920.93336
194.044	-9581.78135
194.267	-3498.1862
194.489	-47.8453
194.712	-1863.13321
194.934	-2604.90606
195.157	-644.1038
195.379	-4600.07612
195.602	-1575.0339
195.824	-2408.37881
196.047	2525.75132
196.269	-1296.6533
196.492	-1425.70006
196.714	-942.75449
196.936	-2055.09924
197.159	-3822.9501
197.381	-1035.69259
197.604	-6762.10638
197.826	-2215.34027
198.048	-2194.68206
198.271	-1493.3325
198.493	-2335.60691
198.715	-3250.91381
198.938	-8215.56237
199.16	-4760.91909
199.382	-1473.37398
199.604	-1543.95424
199.827	-3702.89941
200.049	-19232.16226
200.271	-1113.59422
200.493	-4342.90728
200.715	-1141.74186
200.938	-910.59209
201.16	-928.71827
201.382	-2763.53874
201.604	-3661.70119
201.826	-1220.0249
202.048	-1669.44848
202.27	-1153.22222
202.492	-1504.39664
202.715	-1720.62402
202.937	-4019.92982
203.159	-4938.76318
203.381	6043.79854
203.603	-1394.81094
203.825	5755.95425
204.047	-2464.00366
204.269	3603.58356
204.491	-2384.0362
204.713	-1525.23879
204.935	-1048.73522
205.156	-3702.93597
205.378	-2580.31788
205.6	-1515.63003
205.822	-1631.27435
206.044	1186.79528
206.266	-19040.86957
206.488	-1342.50458
206.71	-2955.36557
206.932	25768.61503
207.153	-1323.98615
207.375	-2758.98526
207.597	-1291.37013
207.819	-1478.96373
208.041	-1300.85177
208.262	-1368.35874
208.484	-1789.37501
208.706	-8931.30442
208.927	-1904.22917
209.149	-9679.38656
209.371	-1299.18739
209.593	1060.03802
209.814	-2424.50485
210.036	485.82995
210.258	-1374.24186
210.479	-2605.17763
210.701	-6268.39615
210.922	-2587.28624
211.144	3999.74908
211.366	-2084.78474
211.587	1479.19784
211.809	-2258.0696
212.03	175287.9963
212.252	470.9625
212.473	-38914.3686
212.695	3370.06963
212.916	-3010.23445
213.138	806.78906
213.359	-1200.41906
213.581	-8899.79253
213.802	-1117.96751
214.024	-5651.58971
214.245	3210.64071
214.466	377.46935
214.688	-2171.13775
214.909	-1721.63005
215.131	-3185.39102
215.352	17230.91114
215.573	-1583.8134
215.795	-4444.33188
216.016	-1842.14775
216.237	1298.28417
216.459	10235.39889
216.68	-1482.8972
216.901	-3667.01201
217.122	19621.96706
217.344	-1756.20507
217.565	-1883.68102
217.786	-2342.66113
218.007	4281.41058
218.228	5509.96546
218.45	-2784.99142
218.671	18722.00816
218.892	-3155.25541
219.113	-7289.93418
219.334	-112.00317
219.555	-13101.71892
219.776	-2208.54525
219.997	-2357.39733
220.219	-2520.55093
220.44	8367.36459
220.661	7940.6464
220.882	-5022.44835
221.103	2376.89918
221.324	7223.86033
221.545	-9459.95288
221.766	-2313.22986
221.987	1163.79212
222.208	1700.89106
222.429	-1553.19101
222.65	171.01063
222.87	744.79789
223.091	3479.4963
223.312	535.39192
223.533	5282.99719
223.754	-4810.85894
223.975	1683.70505
224.196	1194.19948
224.417	6187.11702
224.637	735.66772
224.858	48.63661
225.079	770.21623
225.3	468.06572
225.521	-2110.03679
225.741	590.73813
225.962	611.38098
226.183	109.73517
226.404	1290.79457
226.624	477.87389
226.845	624.04661
227.066	494.45113
227.286	270.86985
227.507	122.46291
227.728	100.03086
227.948	205.46425
228.169	62.34851
228.389	68.74287
228.61	41.75154
228.831	54.80327
229.051	4.13288
229.272	31.77054
229.492	46.72097
229.713	13.82209
229.933	34.35043
230.154	28.98693
230.374	47.71873
230.595	37.08141
230.815	22.22852
231.036	35.54721
231.256	-5.21756
231.477	62.88017
231.697	36.57457
231.917	38.88732
232.138	53.57226
232.358	110.95644
232.579	92.32817
232.799	13.73814
233.019	81.83496
233.24	96.35275
233.46	36.05441
233.68	51.79099
233.901	37.10714
234.121	24.72164
234.341	8.41636
234.561	-3.50325
234.782	16.16259
235.002	58.23055
235.222	-1.13118
235.442	52.49079
235.662	26.19053
235.883	49.92503
236.103	42.60689
236.323	27.15308
236.543	23.8137
236.763	34.96696
236.983	36.10057
237.203	34.59712
237.423	49.53885
237.643	73.53477
237.864	61.7018
238.084	16.40376
238.304	22.61795
238.524	39.2979
238.744	32.3944
238.964	55.81497
239.184	46.79615
239.404	54.40919
239.624	28.70403
239.843	45.25841
240.063	27.7974
240.283	17.95701
240.503	19.69915
240.723	20.47939
240.943	12.67327
241.163	16.41315
241.383	11.86256
241.603	6.747
241.822	7.71765
242.042	5.19637
242.262	7.25705
242.482	7.69633
242.702	8.83818
242.921	3.14981
243.141	6.06621
243.361	5.54979
243.581	8.36699
243.8	7.17857
244.02	4.9218
244.24	8.43077
244.459	8.11812
244.679	15.61202
244.899	9.80776
245.118	11.44428
245.338	10.95003
245.558	11.63506
245.777	6.99175
245.997	8.25214
246.216	8.6884
246.436	4.95571
246.655	3.55389
246.875	3.04916
247.094	5.45488
247.314	2.01446
247.533	3.50383
247.753	3.68886
247.972	3.11688
248.192	1.30543
248.411	1.90573
248.631	3.17171
248.85	4.02727
249.07	4.00178
249.289	5.68856
249.508	4.15796
249.728	6.3357
249.947	6.40139
250.166	8.07842
250.386	3.8237
250.605	6.18429
250.824	10.04348
251.044	6.48337
251.263	19.30165
251.482	11.15878
251.701	9.49641
251.921	0.19168
252.14	3.38177
252.359	4.03053
252.578	8.62907
252.798	3.3709
253.017	7.43709
253.236	3.64805
253.455	4.89412
253.674	10.14653
253.893	4.52322
254.112	7.13141
254.331	10.03316
254.551	7.85308
254.77	4.03276
254.989	11.62138
255.208	8.15007
255.427	12.96253
255.646	10.65902
255.865	17.23212
256.084	7.51407
256.303	9.36149
256.522	11.02139
256.741	3.12695
256.96	2.64534
257.179	7.25474
257.397	8.94742
257.616	4.90708
257.835	5.12564
258.054	12.824
258.273	8.91142
258.492	8.84889
258.711	5.8153
258.93	2.61118
259.148	3.94665
259.367	3.80047
259.586	4.73814
259.805	2.19909
260.023	4.13219
260.242	2.98597
260.461	2.43091
260.68	1.26726
260.898	3.72206
261.117	1.2548
261.336	0.85108
261.554	3.12859
261.773	3.34498
261.992	1.00979
262.21	3.03736
262.429	3.51999
262.648	6.05168
262.866	6.89103
263.085	4.88744
263.303	4.35657
263.522	7.38553
263.74	7.46858
263.959	12.73522
264.178	6.78489
264.396	5.68234
264.615	3.94029
264.833	9.1533
265.051	8.08235
265.27	9.01194
265.488	9.04336
265.707	5.40856
265.925	8.87563
266.144	4.31618
266.362	4.69651
266.58	5.00408
266.799	4.09789
267.017	4.95424
267.235	4.48663
267.454	3.26042
267.672	1.4513
267.89	3.73529
268.109	4.07678
268.327	3.93014
268.545	0.91124
268.763	3.76244
268.982	1.63992
269.2	4.09683
269.418	2.82197
269.636	2.14327
269.854	3.97139
270.073	2.78898
270.291	1.65401
270.509	1.55351
270.727	3.72212
270.945	6.09219
271.163	5.99143
271.381	1.52391
271.599	2.75094
271.817	4.26024
272.036	1.50565
272.254	2.97149
272.472	2.049
272.69	2.06322
272.908	2.21583
273.126	3.46073
273.344	4.49842
273.562	1.58135
273.779	2.42063
273.997	3.6777
274.215	3.46539
274.433	2.48422
274.651	3.93095
274.869	4.00234
275.087	2.41982
275.305	3.57973
275.523	2.09717
275.74	2.61573
275.958	4.75192
276.176	6.80316
276.394	2.16193
276.612	2.86975
276.829	2.90219
277.047	2.48657
277.265	2.6105
277.483	3.07818
277.7	3.44836
277.918	2.90541
278.136	5.20106
278.353	2.5995
278.571	1.58545
278.789	4.04983
279.006	0.98676
279.224	2.41465
279.442	4.24689
279.659	3.02355
279.877	1.95168
280.094	4.29304
280.312	0.99611
280.529	3.00099
280.747	1.07886
280.964	2.49042
281.182	4.6092
281.399	2.56513
281.617	2.99036
281.834	2.16538
282.052	1.59377
282.269	2.81779
282.487	2.06958
282.704	2.00939
282.921	1.78615
283.139	2.85419
283.356	3.56111
283.574	3.40871
283.791	1.63585
284.008	4.37594
284.226	2.67409
284.443	2.85255
284.66	3.63114
284.877	3.25868
285.095	1.93285
285.312	1.51766
285.529	0.87014
285.746	0.77803
285.964	1.79645
286.181	1.19297
286.398	1.74688
286.615	2.36587
286.832	2.34001
287.05	0.61501
287.267	1.6216
287.484	1.68519
287.701	2.3615
287.918	2.21828
288.135	2.40109
288.352	1.08219
288.569	1.2815
288.786	2.21911
289.003	1.69401
289.22	2.60186
289.437	1.45257
289.654	2.50337
289.871	2.46792
290.088	2.52918
290.305	2.01549
290.522	1.68396
290.739	1.80357
290.956	2.60718
291.173	3.00497
291.39	2.90985
291.607	2.05887
291.824	1.68485
292.04	1.27327
292.257	2.60948
292.474	2.8186
292.691	1.91099
292.908	0.99689
293.125	1.53598
293.341	1.00226
293.558	4.22126
293.775	1.99219
293.992	2.09693
294.208	0.79286
294.425	1.36766
294.642	1.76183
294.858	2.63118
295.075	0.80766
295.292	1.93847
295.508	2.26525
295.725	3.17056
295.942	1.90492
296.158	1.49597
296.375	2.16559
296.591	1.87535
296.808	1.91299
297.024	2.25841
297.241	2.47973
297.458	2.56581
297.674	0.94859
297.891	2.31188
298.107	2.11914
298.323	1.71068
298.54	3.20873
298.756	2.15394
298.973	1.45963
299.189	3.52361
299.406	2.20352
299.622	3.49706
299.838	3.55076
300.055	3.2852
300.271	1.77459
300.487	2.1852
300.704	2.33883
300.92	1.89442
301.136	4.61792
301.353	3.73174
301.569	3.03656
301.785	3.29528
302.001	3.54296
302.218	3.43836
302.434	3.6197
302.65	2.23994
302.866	2.80668
303.083	5.02478
303.299	5.07242
303.515	3.34651
303.731	3.76167
303.947	2.45748
304.163	3.03804
304.379	3.57174
304.595	3.86203
304.812	3.07012
305.028	2.93968
305.244	3.25548
305.46	3.95355
305.676	4.17155
305.892	4.64764
306.108	4.12943
306.324	3.36801
306.54	5.03549
306.756	3.9775
306.972	3.89397
307.187	3.65156
307.403	4.70229
307.619	3.21628
307.835	4.52577
308.051	4.66844
308.267	3.04137
308.483	4.72433
308.699	4.08503
308.914	3.71886
309.13	3.76821
309.346	2.77759
309.562	3.15081
309.778	2.83144
309.993	4.20966
310.209	3.96235
310.425	3.04803
310.641	3.85702
310.856	3.35541
311.072	3.25884
311.288	3.94456
311.503	4.26102
311.719	2.80935
311.935	2.8595
312.15	4.43016
312.366	4.28077
312.581	4.43689
312.797	4.09701
313.013	4.66848
313.228	3.61824
313.444	3.94581
313.659	3.51094
313.875	4.19799
314.09	3.88859
314.306	5.11863
314.521	4.57659
314.737	4.573
314.952	4.17519
315.168	4.1944
315.383	4.25762
315.599	3.79501
315.814	3.88189
316.029	4.7941
316.245	3.27829
316.46	2.71969
316.675	4.97129
316.891	5.42514
317.106	6.35866
317.321	4.41762
317.537	4.47479
317.752	4.81926
317.967	4.79891
318.183	3.52732
318.398	3.72908
318.613	4.85724
318.828	5.23476
319.043	4.71358
319.259	3.9468
319.474	4.15421
319.689	4.99283
319.904	2.72027
320.119	5.00834
320.334	4.33996
320.549	3.95461
320.765	5.08619
320.98	4.50707
321.195	4.67932
321.41	4.23066
321.625	4.82852
321.84	5.43102
322.055	5.42316
322.27	3.55989
322.485	3.31622
322.7	4.55011
322.915	4.91823
323.13	3.75151
323.345	5.44985
323.56	4.59369
323.775	4.89213
323.989	4.67413
324.204	4.37186
324.419	4.97664
324.634	3.40792
324.849	4.29849
325.064	5.88113
325.279	5.15053
325.493	4.71904
325.708	5.01842
325.923	3.77356
326.138	4.08481
326.352	5.60949
326.567	4.8915
326.782	3.99972
326.997	3.87062
327.211	4.911
327.426	4.55609
327.641	4.31694
327.855	3.24454
328.07	4.92373
328.285	5.85717
328.499	4.17007
328.714	4.57363
328.928	4.72936
329.143	4.42448
329.358	5.39125
329.572	5.17316
329.787	5.51589
330.001	6.39717
330.216	3.25414
330.43	5.92955
330.645	5.51293
330.859	5.07338
331.074	3.59969
331.288	4.33859
331.503	5.82803
331.717	3.62736
331.931	4.28992
332.146	4.72579
332.36	5.99543
332.575	4.69074
332.789	4.47425
333.003	4.48633
333.218	4.78134
333.432	3.94989
333.646	5.10476
333.86	5.79706
334.075	5.76969
334.289	4.10527
334.503	3.49486
334.717	4.87257
334.932	4.71289
335.146	5.07988
335.36	3.99146
335.574	5.04487
335.788	4.86528
336.003	5.26896
336.217	5.30901
336.431	4.65678
336.645	4.21868
336.859	3.69142
337.073	4.40138
337.287	4.57687
337.501	3.50902
337.715	4.77753
337.929	4.83843
338.143	3.5905
338.357	4.36599
338.571	4.14244
338.785	5.21749
338.999	4.12471
339.213	4.16188
339.427	3.70468
339.641	5.57614
339.855	4.17314
340.069	3.85877
340.283	5.25297
340.497	5.62266
340.711	5.00902
340.924	4.34325
341.138	3.85861
341.352	3.57208
341.566	4.54739
341.78	3.3688
341.993	4.08477
342.207	3.85332
342.421	4.76685
342.635	4.39258
342.848	4.12194
343.062	2.86467
343.276	4.04493
343.49	5.92178
343.703	3.99366
343.917	5.20837
344.131	5.34654
344.344	3.8764
344.558	4.17444
344.771	3.68297
344.985	5.30046
345.199	5.72768
345.412	4.76308
345.626	4.9137
345.839	3.29445
346.053	3.65802
346.266	3.83132
346.48	4.80856
346.693	4.72138
346.907	4.70771
347.12	3.81378
347.334	4.45979
347.547	4.64368
347.76	4.31014
347.974	5.19919
348.187	4.56765
348.401	4.36013
348.614	3.90477
348.827	4.27604
349.041	4.74188
349.254	3.22766
349.467	4.23557
349.681	3.74998
349.894	3.87724
350.107	5.22343
350.32	5.80565
350.534	3.48463
350.747	4.24264
350.96	3.84831
351.173	3.90377
351.386	4.0579
351.6	4.0242
351.813	4.01103
352.026	4.23373
352.239	3.71766
352.452	4.13064
352.665	5.21562
352.878	4.17999
353.092	5.89773
353.305	4.89532
353.518	4.42767
353.731	3.70282
353.944	5.05577
354.157	4.15995
354.37	4.05913
354.583	3.64782
354.796	3.46369
355.009	5.11327
355.222	4.55761
355.435	4.43521
355.647	5.23111
355.86	3.92395
356.073	4.45849
356.286	4.00718
356.499	5.07554
356.712	4.91093
356.925	4.72607
357.138	5.11931
357.35	3.905
357.563	4.17164
357.776	4.60049
357.989	4.54775
358.201	4.88932
358.414	4.79689
358.627	5.20221
358.84	4.38545
359.052	3.67677
359.265	3.85278
359.478	5.02391
359.69	2.86518
359.903	5.06823
360.116	5.11652
360.328	3.61049
360.541	5.06614
360.753	4.10193
360.966	4.35877
361.179	4.41053
361.391	4.40167
361.604	4.39678
361.816	4.65893
362.029	4.67996
362.241	4.32614
362.454	4.65362
362.666	4.16212
362.879	4.88625
363.091	4.38526
363.304	4.25482
363.516	4.3973
363.728	3.86571
363.941	4.73738
364.153	4.58061
364.366	3.23178
364.578	3.81522
364.79	4.72557
365.003	4.62577
365.215	4.20404
365.427	4.79442
365.639	5.14075
365.852	4.5612
366.064	5.37375
366.276	4.25556
366.488	4.67622
366.701	4.32757
366.913	4.24373
367.125	4.44617
367.337	4.0162
367.549	4.18281
367.762	4.39389
367.974	4.29813
368.186	4.2679
368.398	5.04135
368.61	4.75627
368.822	4.82751
369.034	4.28923
369.246	4.94689
369.458	5.94321
369.67	3.86169
369.882	5.61849
370.094	3.13557
370.306	5.32254
370.518	4.23889
370.73	4.20241
370.942	4.06094
371.154	4.44962
371.366	4.27329
371.578	4.82402
371.79	4.33452
372.002	5.04895
372.214	5.80429
372.425	4.48159
372.637	5.51879
372.849	4.76618
373.061	3.18606
373.273	4.80278
373.484	4.79024
373.696	5.00254
373.908	3.13279
374.12	5.19201
374.331	4.77993
374.543	4.00926
374.755	3.9382
374.967	4.50085
375.178	5.11036
375.39	4.22094
375.602	4.55505
375.813	3.59105
376.025	3.94608
376.236	4.54998
376.448	4.63945
376.66	4.52846
376.871	4.37491
377.083	5.04967
377.294	5.53536
377.506	4.33208
377.717	5.47123
377.929	4.67122
378.14	4.31254
378.352	4.91317
378.563	4.96463
378.775	5.41859
378.986	4.10899
379.197	4.8373
379.409	4.13016
379.62	5.0326
379.832	4.62585
380.043	4.51696
380.254	4.82647
380.466	3.87401
380.677	6.25207
380.888	5.90835
381.1	6.16583
381.311	6.27947
381.522	4.75431
381.733	6.38833
381.945	4.57954
382.156	4.63753
382.367	4.27005
382.578	6.409
382.789	6.48428
383.001	4.22321
383.212	5.76366
383.423	5.76278
383.634	5.43508
383.845	5.1113
384.056	4.46878
384.267	4.78991
384.478	4.76378
384.69	4.12214
384.901	5.15025
385.112	4.98885
385.323	5.93164
385.534	4.96993
385.745	5.09326
385.956	5.06528
386.167	4.36366
386.378	5.20174
386.588	4.39065
386.799	4.37643
387.01	3.87283
387.221	5.43811
387.432	4.92257
387.643	5.9967
387.854	4.73717
388.065	4.65096
388.275	4.79776
388.486	4.58478
388.697	4.96669
388.908	4.54769
389.119	5.55836
389.329	5.78542
389.54	4.9858
389.751	5.12967
389.962	5.6613
390.172	5.03299
390.383	4.84298
390.594	4.57341
390.804	4.61459
391.015	4.72797
391.226	5.09246
391.436	5.44703
391.647	5.186
391.858	5.43195
392.068	4.23551
392.279	4.47162
392.489	5.21864
392.7	5.56621
392.91	4.62074
393.121	4.64172
393.331	5.33391
393.542	5.79413
393.752	5.3572
393.963	5.30282
394.173	5.22531
394.384	5.5471
394.594	5.16154
394.804	4.49177
395.015	5.24121
395.225	5.56195
395.436	4.56971
395.646	5.401
395.856	4.91561
396.067	4.41149
396.277	5.63986
396.487	5.37442
396.697	5.3574
396.908	5.62478
397.118	5.61999
397.328	5.19713
397.538	5.70355
397.749	4.84171
397.959	5.77611
398.169	5.47661
398.379	4.50085
398.589	5.60906
398.8	5.32299
399.01	5.41682
399.22	5.03672
399.43	6.44625
399.64	5.2314
399.85	5.56156
400.06	5.37326
400.27	4.81256
400.48	5.31831
400.69	5.94381
400.9	5.09219
401.11	4.85407
401.32	5.78374
401.53	5.0699
401.74	6.20749
401.95	5.61605
402.16	5.0577
402.37	5.7144
402.58	5.10591
402.79	5.79193
403	5.94765
403.209	5.09
403.419	5.99845
403.629	5.17436
403.839	6.11423
404.049	6.10487
404.258	5.31508
404.468	5.15333
404.678	6.00632
404.888	6.2666
405.097	5.49018
405.307	5.63142
405.517	6.06213
405.727	5.88613
405.936	5.54301
406.146	5.84599
406.356	6.46572
406.565	5.72529
406.775	5.57809
406.984	5.57731
407.194	6.82029
407.404	5.79798
407.613	6.01881
407.823	6.11211
408.032	6.60383
408.242	6.34178
408.451	5.59927
408.661	5.83445
408.87	6.83751
409.08	5.60186
409.289	6.12395
409.499	6.11764
409.708	6.0617
409.918	4.92014
410.127	6.08822
410.336	6.78699
410.546	6.43275
410.755	5.90001
410.964	5.81345
411.174	5.70823
411.383	6.49203
411.592	6.32985
411.802	5.65547
412.011	6.6946
412.22	6.19359
412.429	7.08081
412.639	6.98673
412.848	6.85994
413.057	7.19548
413.266	6.86229
413.475	6.38541
413.685	6.74808
413.894	6.84435
414.103	6.97665
414.312	6.781
414.521	6.37628
414.73	6.67272
414.939	7.39327
415.148	6.95591
415.357	6.79998
415.566	6.55255
415.776	6.43001
415.985	6.56826
416.194	7.17463
416.403	7.74621
416.611	6.27852
416.82	6.7825
417.029	7.38981
417.238	7.24997
417.447	7.2945
417.656	8.05585
417.865	8.11705
418.074	8.39141
418.283	9.13839
418.492	10.19582
418.7	10.01948
418.909	11.50615
419.118	10.41241
419.327	10.88561
419.536	10.81503
419.744	10.86348
419.953	12.20025
420.162	12.64861
420.371	11.90697
420.579	12.50501
420.788	13.4569
420.997	13.55154
421.205	13.96217
421.414	13.58103
421.623	13.72126
421.831	13.24026
422.04	13.87339
422.249	12.83219
422.457	13.18301
422.666	12.26801
422.874	13.39371
423.083	13.46357
423.291	13.51403
423.5	13.55333
423.708	13.9855
423.917	14.5756
424.125	13.98963
424.334	13.91407
424.542	15.74299
424.751	15.06442
424.959	14.53688
425.167	14.58682
425.376	14.41584
425.584	12.9841
425.793	12.99661
426.001	11.87058
426.209	12.07291
