Data from WindowProjectSample_Transmission__51__00051.txt Node

Date: Sat May 03 16:44:46 EDT 2025
User: jessi
Spectrometer: SR400872
Trigger mode: 0
Integration Time (sec): 5.000010E-1
Scans to average: 6
Electric dark correction enabled: true
Nonlinearity correction enabled: true
Boxcar width: 0
XAxis mode: Wavelengths
Number of Pixels in Spectrum: 3648
>>>>>Begin Spectral Data<<<<<
184.909	173305.36643
185.132	1677.20795
185.355	-2003.88283
185.578	3364.74101
185.801	-290.04104
186.024	6544.6947
186.247	1192.5064
186.47	944.54445
186.693	-295.25468
186.916	294.36322
187.139	10403.68119
187.362	3625.79252
187.585	2596.69746
187.808	-1229.27559
188.031	122.83011
188.254	7909.30007
188.476	494.89949
188.699	-4297.64767
188.922	-317.85824
189.145	-4303.61198
189.368	-590.71177
189.591	-937.90215
189.813	-2210.94165
190.036	4825.49665
190.259	3555.17022
190.482	2374.23005
190.705	8948.46888
190.927	-1723.3338
191.15	-1671.3327
191.373	5007.20727
191.595	-1827.92898
191.818	9169.73884
192.041	-213.92994
192.263	-2441.76417
192.486	-1005.42668
192.709	8867.4634
192.931	-2763.55516
193.154	-2059.78532
193.377	4474.79153
193.599	6711.59727
193.822	-1878.74165
194.044	-1884.44244
194.267	619.667
194.489	-222.06988
194.712	2135.97188
194.934	3481.61561
195.157	-7953.76089
195.379	2154.24867
195.602	5377.38721
195.824	6051.42397
196.047	-9558.24658
196.269	-10800.50497
196.492	-1134.93728
196.714	-4910.24867
196.936	4585.31673
197.159	-2490.95662
197.381	-622.33724
197.604	1549.87802
197.826	-3594.33026
198.048	-1444.4875
198.271	-11896.64704
198.493	10091.59242
198.715	-2563.92084
198.938	-808.21258
199.16	-3777.33342
199.382	1712.88098
199.604	-1385.01908
199.827	-1153.58741
200.049	-4372.91588
200.271	2579.76144
200.493	-25902.20425
200.715	4790.71783
200.938	12568.57323
201.16	-228771.63002
201.382	-5397.47219
201.604	-984.75408
201.826	-6870.10661
202.048	-7484.04286
202.27	-4604.69986
202.492	-3768.12406
202.715	-1277.25841
202.937	-3551.77028
203.159	1114.93906
203.381	-101390.68342
203.603	-1037.80334
203.825	-1497.90388
204.047	2212.40438
204.269	-903.87308
204.491	7185.03354
204.713	-8514.66934
204.935	38406.25956
205.156	2030.47437
205.378	-7604.79082
205.6	-1564.27057
205.822	6392.77265
206.044	-302.94228
206.266	-2050.61725
206.488	711.47608
206.71	-518077.2158
206.932	-16385.4358
207.153	11413.2225
207.375	-2439.09146
207.597	15998.15019
207.819	1756.82654
208.041	6274.28228
208.262	592.57169
208.484	-1017.86115
208.706	-892.18047
208.927	10646.58044
209.149	-7694.68272
209.371	-2853.49807
209.593	-2532.66305
209.814	-3742.99196
210.036	2663.44866
210.258	-741.13727
210.479	1928.15643
210.701	828.71832
210.922	4172.90968
211.144	-1391.98751
211.366	6064.76021
211.587	-753.347
211.809	-3873.26366
212.03	-2361.76321
212.252	-522.83815
212.473	3014.52365
212.695	-850.77156
212.916	-981.62088
213.138	757.5043
213.359	-1293.11831
213.581	-3380.95022
213.802	-1523.03627
214.024	10487.61112
214.245	-1081.81633
214.466	-207.75201
214.688	-3393.4347
214.909	-790.84194
215.131	9126.93736
215.352	-1248.10593
215.573	-245869.25582
215.795	4479.13931
216.016	-3830.74813
216.237	-568.80694
216.459	-10990.26351
216.68	-1585.82568
216.901	-1672.49318
217.122	1924.46674
217.344	-8810.921
217.565	-1614.68832
217.786	22147.00033
218.007	1018.10982
218.228	-3099.24489
218.45	-5676.04973
218.671	-1587.42803
218.892	898.35164
219.113	1748.98783
219.334	336.47524
219.555	-6013.37158
219.776	34647.97354
219.997	-6707.22939
220.219	-8442.34409
220.44	-4813.43687
220.661	-1354.01455
220.882	12761.95913
221.103	-849.79368
221.324	2359.66556
221.545	-6564.68696
221.766	-1520.95479
221.987	-379.43735
222.208	1941.26998
222.429	6633.04835
222.65	-138.60415
222.87	-660.17151
223.091	37568.20381
223.312	951.58902
223.533	-2016.01539
223.754	3580.97468
223.975	1692.64453
224.196	-769.65946
224.417	-30203.42436
224.637	-2378.19054
224.858	461.90488
225.079	3901.91592
225.3	1545.69949
225.521	3613.88071
225.741	-2352.16187
225.962	1518.60854
226.183	877.66209
226.404	1858.18863
226.624	1882.242
226.845	1419.02739
227.066	2530.17587
227.286	631.30875
227.507	434.28322
227.728	387.20916
227.948	537.96048
228.169	144.49938
228.389	133.68998
228.61	54.30599
228.831	83.01629
229.051	9.12911
229.272	47.7197
229.492	62.11448
229.713	23.30526
229.933	52.016
230.154	41.63182
230.374	68.28857
230.595	56.40576
230.815	36.45029
231.036	57.34573
231.256	-12.44275
231.477	102.40704
231.697	65.19931
231.917	62.86875
232.138	86.4523
232.358	172.1517
232.579	179.42969
232.799	33.42846
233.019	164.84208
233.24	236.98794
233.46	64.16557
233.68	109.93109
233.901	94.94571
234.121	46.71733
234.341	22.55388
234.561	-5.82138
234.782	37.4006
235.002	112.82828
235.222	-0.71567
235.442	98.16952
235.662	49.79397
235.883	107.27446
236.103	90.73387
236.323	69.67028
236.543	55.92662
236.763	77.20224
236.983	65.49973
237.203	81.65864
237.423	104.88976
237.643	149.6288
237.864	144.244
238.084	33.45672
238.304	52.19658
238.524	85.4157
238.744	70.71405
238.964	112.09323
239.184	106.56887
239.404	101.47254
239.624	51.87893
239.843	100.37549
240.063	50.62699
240.283	35.39952
240.503	38.23421
240.723	34.80368
240.943	19.46281
241.163	27.6008
241.383	18.48
241.603	9.64138
241.822	10.27618
242.042	9.45055
242.262	11.27326
242.482	12.16399
242.702	14.08308
242.921	5.17952
243.141	9.9247
243.361	8.55848
243.581	13.15644
243.8	9.93764
244.02	7.39592
244.24	13.53294
244.459	13.82402
244.679	26.012
244.899	16.24045
245.118	20.01436
245.338	16.79258
245.558	19.16722
245.777	13.53017
245.997	14.44234
246.216	12.83886
246.436	7.12728
246.655	5.39708
246.875	4.24316
247.094	7.98329
247.314	3.04089
247.533	4.38773
247.753	6.02798
247.972	4.76832
248.192	1.85589
248.411	2.86547
248.631	5.44418
248.85	6.87658
249.07	4.80592
249.289	9.08291
249.508	6.68781
249.728	10.74429
249.947	11.82174
250.166	11.42902
250.386	6.54894
250.605	10.63719
250.824	15.27567
251.044	10.97694
251.263	36.64354
251.482	19.06558
251.701	16.45613
251.921	0.60824
252.14	4.92711
252.359	5.71899
252.578	14.10806
252.798	4.09613
253.017	12.58983
253.236	6.57568
253.455	8.31898
253.674	16.34097
253.893	8.79894
254.112	10.55682
254.331	16.7649
254.551	13.66651
254.77	7.46801
254.989	21.18975
255.208	17.2136
255.427	23.00586
255.646	19.84326
255.865	33.26184
256.084	12.339
256.303	15.11023
256.522	23.24002
256.741	5.2422
256.96	5.4734
257.179	12.22291
257.397	15.96723
257.616	7.57273
257.835	9.66045
258.054	21.61129
258.273	13.37568
258.492	15.67484
258.711	9.52288
258.93	4.01858
259.148	4.91974
259.367	5.58131
259.586	7.32441
259.805	3.48888
260.023	6.61875
260.242	5.06829
260.461	3.73526
260.68	2.00913
260.898	6.02004
261.117	1.99023
261.336	1.7495
261.554	5.15306
261.773	5.0614
261.992	1.35421
262.21	5.7046
262.429	6.47809
262.648	10.75014
262.866	11.80661
263.085	7.60152
263.303	6.93304
263.522	11.60855
263.74	12.5407
263.959	21.35296
264.178	10.63042
264.396	9.61223
264.615	7.90774
264.833	16.51862
265.051	14.25834
265.27	12.88401
265.488	15.934
265.707	10.04531
265.925	15.60759
266.144	6.62565
266.362	8.70452
266.58	8.38018
266.799	7.03045
267.017	8.69263
267.235	7.77843
267.454	4.90224
267.672	2.87288
267.89	6.0153
268.109	6.89136
268.327	6.51185
268.545	1.94921
268.763	6.27767
268.982	2.29147
269.2	7.43389
269.418	4.43133
269.636	3.54727
269.854	6.06582
270.073	5.56956
270.291	2.63887
270.509	3.0524
270.727	6.40042
270.945	9.77366
271.163	10.18386
271.381	2.58894
271.599	4.04174
271.817	7.25613
272.036	2.63228
272.254	4.39718
272.472	3.36519
272.69	3.55869
272.908	3.65789
273.126	5.84879
273.344	7.60077
273.562	2.60981
273.779	3.58931
273.997	5.59284
274.215	6.0146
274.433	4.56178
274.651	6.45685
274.869	6.3878
275.087	4.01536
275.305	6.00913
275.523	3.5215
275.74	4.92089
275.958	7.93862
276.176	10.98854
276.394	3.4699
276.612	4.88522
276.829	4.67994
277.047	3.91903
277.265	4.57583
277.483	5.41344
277.7	6.09411
277.918	4.77893
278.136	8.65588
278.353	4.34383
278.571	2.42368
278.789	7.098
279.006	1.60299
279.224	4.04922
279.442	7.0363
279.659	4.98288
279.877	3.72716
280.094	7.60284
280.312	1.41327
280.529	4.90118
280.747	1.203
280.964	3.88704
281.182	8.6773
281.399	4.29718
281.617	5.53639
281.834	3.89389
282.052	3.16758
282.269	4.41848
282.487	3.51195
282.704	2.88067
282.921	3.12799
283.139	4.62569
283.356	5.75875
283.574	5.24102
283.791	2.75884
284.008	7.45481
284.226	4.03094
284.443	4.72735
284.66	5.60893
284.877	4.79526
285.095	3.27571
285.312	2.15976
285.529	1.3451
285.746	1.4511
285.964	2.92007
286.181	1.99604
286.398	2.78105
286.615	3.959
286.832	3.79358
287.05	0.96036
287.267	2.65113
287.484	2.85319
287.701	3.77893
287.918	3.58102
288.135	3.91894
288.352	2.18528
288.569	2.2571
288.786	3.60605
289.003	2.57775
289.22	3.90949
289.437	2.2803
289.654	4.19888
289.871	4.31822
290.088	3.95166
290.305	3.12081
290.522	2.57537
290.739	3.25932
290.956	4.35576
291.173	5.17688
291.39	4.8363
291.607	3.40212
291.824	2.59538
292.04	1.7511
292.257	3.92409
292.474	4.58009
292.691	3.12228
292.908	1.47148
293.125	2.78482
293.341	1.59261
293.558	7.1098
293.775	3.01339
293.992	3.09859
294.208	1.43566
294.425	2.00512
294.642	2.58524
294.858	4.85204
295.075	1.46934
295.292	3.06366
295.508	4.21935
295.725	5.87959
295.942	4.0409
296.158	3.61595
296.375	4.85586
296.591	4.12547
296.808	5.03032
297.024	5.80868
297.241	6.13211
297.458	6.8037
297.674	4.15659
297.891	6.00259
298.107	6.43663
298.323	5.47501
298.54	8.69206
298.756	6.51554
298.973	5.79789
299.189	9.14831
299.406	7.21293
299.622	8.65359
299.838	9.76018
300.055	8.94593
300.271	7.00887
300.487	7.0276
300.704	7.95726
300.92	7.53207
301.136	11.99714
301.353	9.95155
301.569	8.97838
301.785	9.42376
302.001	10.49298
302.218	10.06344
302.434	10.55764
302.65	8.49498
302.866	9.39811
303.083	13.19633
303.299	13.58233
303.515	10.61606
303.731	11.60588
303.947	9.48007
304.163	10.46686
304.379	11.25619
304.595	11.68518
304.812	10.24482
305.028	10.20617
305.244	10.64671
305.46	11.80333
305.676	12.58177
305.892	13.27533
306.108	12.49639
306.324	11.2596
306.54	13.74413
306.756	12.32459
306.972	11.95342
307.187	12.40319
307.403	13.03613
307.619	11.1684
307.835	12.98938
308.051	13.78683
308.267	10.93299
308.483	14.47735
308.699	12.9619
308.914	12.94515
309.13	12.51272
309.346	11.66724
309.562	12.11981
309.778	11.69451
309.993	13.44013
310.209	13.95953
310.425	12.0092
310.641	13.8226
310.856	12.60184
311.072	12.33563
311.288	13.59664
311.503	14.77942
311.719	11.83323
311.935	12.40658
312.15	14.76077
312.366	14.66604
312.581	14.7316
312.797	14.47442
313.013	15.10642
313.228	13.40488
313.444	13.16469
313.659	12.65181
313.875	13.94329
314.09	13.37905
314.306	14.6563
314.521	14.72332
314.737	14.30127
314.952	14.00425
315.168	13.89914
315.383	14.35729
315.599	12.80671
315.814	14.02091
316.029	14.3304
316.245	12.9072
316.46	10.9825
316.675	14.63793
316.891	15.84506
317.106	17.13212
317.321	14.0361
317.537	14.56827
317.752	14.84504
317.967	14.98668
318.183	12.45238
318.398	13.88429
318.613	14.86789
318.828	15.4166
319.043	14.18046
319.259	13.33509
319.474	14.34276
319.689	15.13423
319.904	11.6026
320.119	15.41194
320.334	14.09246
320.549	13.98805
320.765	15.27403
320.98	14.18549
321.195	13.97168
321.41	14.00894
321.625	14.67499
321.84	16.13719
322.055	15.49392
322.27	13.38969
322.485	12.25388
322.7	14.55893
322.915	15.30529
323.13	14.17148
323.345	16.84489
323.56	15.84857
323.775	15.44748
323.989	15.46992
324.204	14.37798
324.419	15.84353
324.634	13.42303
324.849	14.94336
325.064	18.34381
325.279	16.6879
325.493	15.44715
325.708	16.06223
325.923	13.78018
326.138	14.96427
326.352	16.82992
326.567	15.68
326.782	14.00614
326.997	14.73076
327.211	15.27095
327.426	15.2183
327.641	14.9366
327.855	13.31017
328.07	15.82898
328.285	17.76065
328.499	14.47714
328.714	14.96615
328.928	15.05901
329.143	15.20493
329.358	16.44591
329.572	15.92639
329.787	17.00928
330.001	18.41971
330.216	12.45928
330.43	17.78062
330.645	16.09961
330.859	15.66102
331.074	13.1282
331.288	14.73222
331.503	17.53078
331.717	13.24227
331.931	15.02684
332.146	15.87302
332.36	17.57676
332.575	15.79694
332.789	14.94065
333.003	15.92568
333.218	16.02665
333.432	15.20144
333.646	16.58498
333.86	17.53184
334.075	17.15438
334.289	14.67704
334.503	12.88157
334.717	16.70438
334.932	15.58696
335.146	16.22301
335.36	14.31886
335.574	16.5074
335.788	15.57944
336.003	16.69379
336.217	16.98932
336.431	15.87866
336.645	15.11764
336.859	14.28075
337.073	15.46173
337.287	16.11171
337.501	13.57259
337.715	16.06316
337.929	15.88297
338.143	14.44639
338.357	15.38175
338.571	15.64115
338.785	17.49948
338.999	15.30138
339.213	15.28328
339.427	14.6173
339.641	17.44672
339.855	14.84613
340.069	14.64241
340.283	16.87006
340.497	17.61557
340.711	16.81238
340.924	15.86493
341.138	14.80746
341.352	14.31618
341.566	16.05305
341.78	14.26232
341.993	15.28669
342.207	15.15893
342.421	16.60104
342.635	15.82573
342.848	15.74164
343.062	13.11304
343.276	15.25975
343.49	18.25421
343.703	15.18403
343.917	16.95976
344.131	17.47911
344.344	15.06387
344.558	15.77857
344.771	14.60025
344.985	17.26618
345.199	18.12468
345.412	16.42017
345.626	16.82008
345.839	14.59814
346.053	14.72415
346.266	15.08652
346.48	16.87254
346.693	16.73596
346.907	16.60944
347.12	14.82534
347.334	15.82221
347.547	16.69619
347.76	16.20085
347.974	16.92504
348.187	16.40928
348.401	16.03994
348.614	14.41714
348.827	15.59081
349.041	16.54143
349.254	14.16097
349.467	15.20248
349.681	14.89541
349.894	14.45013
350.107	17.72026
350.32	18.33022
350.534	14.86144
350.747	15.88098
350.96	15.30302
351.173	15.53828
351.386	15.86093
351.6	15.30652
351.813	15.55521
352.026	15.99129
352.239	15.30356
352.452	15.33412
352.665	17.65013
352.878	15.7564
353.092	18.6861
353.305	17.08421
353.518	15.9569
353.731	14.88046
353.944	17.16692
354.157	15.72251
354.37	15.94402
354.583	14.33029
354.796	15.32746
355.009	17.5948
355.222	16.51711
355.435	16.3893
355.647	18.07048
355.86	15.80773
356.073	16.69992
356.286	16.26535
356.499	17.76622
356.712	17.65849
356.925	17.32772
357.138	17.71574
357.35	15.77899
357.563	16.43791
357.776	17.05119
357.989	17.15647
358.201	17.67717
358.414	17.15652
358.627	18.57097
358.84	16.8116
359.052	15.48408
359.265	16.17125
359.478	17.65772
359.69	14.21701
359.903	17.70986
360.116	18.13888
360.328	15.45106
360.541	17.95869
360.753	17.13341
360.966	16.98958
361.179	17.30529
361.391	17.18751
361.604	16.8064
361.816	17.36817
362.029	17.39991
362.241	16.92791
362.454	17.66656
362.666	16.73065
362.879	18.24193
363.091	17.40507
363.304	17.26971
363.516	17.35828
363.728	16.33009
363.941	17.55582
364.153	17.95006
364.366	15.51956
364.578	16.25883
364.79	17.5996
365.003	17.68361
365.215	16.67215
365.427	17.81289
365.639	18.35793
365.852	17.50556
366.064	18.92084
366.276	16.82447
366.488	17.33213
366.701	16.90712
366.913	16.76935
367.125	16.77437
367.337	16.76117
367.549	16.46926
367.762	16.8716
367.974	17.11652
368.186	17.15802
368.398	18.19794
368.61	17.45471
368.822	17.96345
369.034	16.73124
369.246	17.86921
369.458	20.09298
369.67	16.70136
369.882	18.65288
370.094	15.21334
370.306	18.48167
370.518	16.81575
370.73	16.9556
370.942	16.77552
371.154	17.4047
371.366	17.1214
371.578	17.89599
371.79	17.42111
372.002	18.4433
372.214	19.42125
372.425	17.0323
372.637	19.5537
372.849	17.73957
373.061	15.32872
373.273	17.85588
373.484	18.16075
373.696	18.53983
373.908	15.21633
374.12	18.4199
374.331	18.34692
374.543	16.58425
374.755	16.56031
374.967	17.41077
375.178	18.90602
375.39	17.17881
375.602	17.8917
375.813	16.16377
376.025	16.50489
376.236	17.52949
376.448	18.023
376.66	17.96174
376.871	18.09126
377.083	18.76876
377.294	19.91306
377.506	17.64466
377.717	19.38276
377.929	18.36719
378.14	17.87465
378.352	18.47243
378.563	18.95005
378.775	19.55477
378.986	17.20416
379.197	17.97127
379.409	17.48433
379.62	18.85036
379.832	18.24484
380.043	18.04362
380.254	18.3365
380.466	16.97571
380.677	20.82709
380.888	20.28096
381.1	20.76247
381.311	20.7872
381.522	18.86719
381.733	20.75471
381.945	18.29346
382.156	17.96711
382.367	18.02468
382.578	21.08874
382.789	21.49875
383.001	17.53568
383.212	20.17096
383.423	20.23245
383.634	19.5422
383.845	19.23994
384.056	18.26852
384.267	18.67647
384.478	18.91669
384.69	17.66998
384.901	19.51793
385.112	19.17202
385.323	20.60501
385.534	19.05283
385.745	19.31606
385.956	19.24396
386.167	18.29939
386.378	19.47961
386.588	18.31478
386.799	17.88187
387.01	17.80755
387.221	19.73058
387.432	19.12868
387.643	20.63857
387.854	18.60141
388.065	18.81008
388.275	18.70361
388.486	18.2823
388.697	19.58101
388.908	18.62163
389.119	20.12938
389.329	20.44735
389.54	19.39194
389.751	19.66893
389.962	20.50025
390.172	19.12598
390.383	19.19686
390.594	18.50117
390.804	18.68662
391.015	18.80734
391.226	19.65658
391.436	20.20846
391.647	20.09397
391.858	20.18949
392.068	18.28455
392.279	18.92826
392.489	20.33367
392.7	20.37502
392.91	19.10642
393.121	18.8547
393.331	20.22506
393.542	21.14912
393.752	20.65797
393.963	20.4499
394.173	20.21269
394.384	20.61282
394.594	20.19957
394.804	19.13268
395.015	19.901
395.225	20.54151
395.436	19.40364
395.646	20.62097
395.856	20.05544
396.067	18.69638
396.277	20.76531
396.487	20.55761
396.697	20.78441
396.908	20.95404
397.118	20.39566
397.328	20.21055
397.538	21.03921
397.749	19.52793
397.959	21.0624
398.169	20.81031
398.379	19.19206
398.589	20.48089
398.8	20.98708
399.01	20.88433
399.22	20.22278
399.43	22.14809
399.64	20.68362
399.85	21.11248
400.06	20.84681
400.27	20.20508
400.48	20.35981
400.69	21.63647
400.9	20.47421
401.11	19.55374
401.32	21.3951
401.53	20.27188
401.74	22.02352
401.95	20.97101
402.16	20.71124
402.37	21.20975
402.58	20.85389
402.79	21.51083
403	21.84536
403.209	20.51186
403.419	22.10514
403.629	20.58069
403.839	22.49286
404.049	22.37333
404.258	21.31764
404.468	21.05454
404.678	22.29995
404.888	22.84708
405.097	21.79983
405.307	21.77147
405.517	22.38102
405.727	22.33234
405.936	21.3236
406.146	22.11116
406.356	23.12141
406.565	21.9047
406.775	21.55671
406.984	21.7579
407.194	23.89467
407.404	22.04538
407.613	22.39982
407.823	22.84864
408.032	23.16097
408.242	23.07447
408.451	21.70651
408.661	22.27589
408.87	23.66155
409.08	21.66291
409.289	22.61041
409.499	22.92017
409.708	22.45703
409.918	20.95751
410.127	22.88201
410.336	23.70742
410.546	23.39879
410.755	22.52105
410.964	22.30631
411.174	21.88691
411.383	23.31984
411.592	23.2571
411.802	22.57218
412.011	23.74548
412.22	22.97438
412.429	23.88863
412.639	24.66524
412.848	23.89525
413.057	24.79136
413.266	24.15791
413.475	23.32907
413.685	24.23421
413.894	24.22564
414.103	24.44683
414.312	23.92236
414.521	23.62466
414.73	24.07964
414.939	25.4332
415.148	24.74215
415.357	24.15528
415.566	24.17715
415.776	23.92713
415.985	24.16233
416.194	25.06231
416.403	26.32882
416.611	23.54455
416.82	24.03786
417.029	25.0051
417.238	24.17508
417.447	24.40462
417.656	24.73062
417.865	24.50889
418.074	24.92807
418.283	25.1949
418.492	26.01757
418.7	25.89077
418.909	26.93494
419.118	25.67278
419.327	26.3234
419.536	26.00041
419.744	25.79786
