Data from WindowProjectSample3_Transmission__24__00024.txt Node

Date: Sun May 04 10:21:34 EDT 2025
User: jessi
Spectrometer: SR400872
Trigger mode: 0
Integration Time (sec): 5.000050E-1
Scans to average: 20
Electric dark correction enabled: true
Nonlinearity correction enabled: true
Boxcar width: 0
XAxis mode: Wavelengths
Number of Pixels in Spectrum: 3648
>>>>>Begin Spectral Data<<<<<
184.909	-1623.74819
185.132	-1256.94132
185.355	-1312.12264
185.578	-1066.91555
185.801	-4106.96206
186.024	-1034.83336
186.247	-1447.61764
186.47	-2712.14449
186.693	-187.76608
186.916	-251.08181
187.139	-991.86163
187.362	-1640.43821
187.585	-1015.40903
187.808	-836.52646
188.031	-226440.71526
188.254	-1297.7531
188.476	-974.80274
188.699	-1054.86777
188.922	604.01243
189.145	-1239.13057
189.368	-1167.33479
189.591	-3334.1802
189.813	-704.39036
190.036	-1290.66522
190.259	-3171.72194
190.482	-1584.4496
190.705	-1729.80301
190.927	-969.52768
191.15	-1672.17663
191.373	-2284.92708
191.595	-2410.5095
191.818	-1225.45753
192.041	-13389.80742
192.263	-1508.01037
192.486	-430.48342
192.709	-1653.99669
192.931	-4188.8409
193.154	-1187.45825
193.377	-1184.11278
193.599	12645.15796
193.822	-779.77257
194.044	-3938.3165
194.267	-4347.15277
194.489	-785.24041
194.712	-1765.13578
194.934	-1625.91487
195.157	-980.87399
195.379	-736.7667
195.602	-817.56696
195.824	-1005.40252
196.047	-877.84357
196.269	-1049.05721
196.492	-1114.65915
196.714	-1029.15649
196.936	-1556.47742
197.159	-899.27908
197.381	-888.71586
197.604	-1155.81451
197.826	-1893.16625
198.048	-1643.9748
198.271	-1267.75896
198.493	-1095.30414
198.715	-868.25905
198.938	-5837.38823
199.16	-1196.71804
199.382	-919.15589
199.604	-9327.9306
199.827	-1603.6148
200.049	-959.24238
200.271	-850.27018
200.493	-2129.49007
200.715	-945.60861
200.938	-757.60816
201.16	-1328.54636
201.382	-2621.07205
201.604	-1263.85381
201.826	-1229.24806
202.048	-555.92799
202.27	-874.80472
202.492	-1932.94296
202.715	-1979.02136
202.937	-2256.26658
203.159	-1155.0474
203.381	-1654.0762
203.603	-1310.99195
203.825	4135.69939
204.047	-1142.29714
204.269	-3130.93033
204.491	-1495.806
204.713	-784.32806
204.935	-1221.44418
205.156	-1272.58247
205.378	-3924.68438
205.6	-935.41584
205.822	-1096.8801
206.044	2778.12246
206.266	-1296.5149
206.488	-744.74592
206.71	-1889.69285
206.932	-2434.50778
207.153	-1158.38176
207.375	-943.5098
207.597	-1101.00138
207.819	-904.05392
208.041	-1332.50572
208.262	-1019.81575
208.484	-1943.61545
208.706	-827.8895
208.927	-830.58548
209.149	-2149.30667
209.371	-798.85113
209.593	-753.85299
209.814	-587.05278
210.036	-857.39561
210.258	-558.5957
210.479	-1350.42179
210.701	11091.08125
210.922	-860.36456
211.144	-921.82428
211.366	-1998.22377
211.587	10852.91111
211.809	-1006.8508
212.03	-3110.32401
212.252	1620.47123
212.473	-1189.16204
212.695	-4763.21922
212.916	-2960.26202
213.138	-6039.85456
213.359	-971.26882
213.581	-1472.81277
213.802	-1024.92056
214.024	-1315.04139
214.245	-10902.19771
214.466	-724.0836
214.688	-1351.8696
214.909	-1474.7736
215.131	-2030.14635
215.352	-921.691
215.573	-1221.71509
215.795	-3052.22527
216.016	-1108.05073
216.237	-4601.92686
216.459	-13559.04964
216.68	-1528.31066
216.901	-1412.84812
217.122	-3299.92743
217.344	-1203.72881
217.565	-1541.63107
217.786	-1483.44871
218.007	-1278.42851
218.228	-5256.59774
218.45	-1170.0781
218.671	-1455.2678
218.892	-1678.351
219.113	-2134.1491
219.334	-100.61473
219.555	-1335.27992
219.776	-865.34269
219.997	-1352.15313
220.219	-2791.87544
220.44	-989.41246
220.661	-813.87481
220.882	-1041.20479
221.103	-3259.69916
221.324	5746.77387
221.545	-1889.59693
221.766	-1310.78698
221.987	-2436.09827
222.208	-2871.38577
222.429	-920.96448
222.65	-1736.09782
222.87	5029.25873
223.091	-8187.96813
223.312	4159.93904
223.533	-1746.82252
223.754	-1664.85644
223.975	-2422.27749
224.196	151877.1993
224.417	-10123.21531
224.637	2119.49958
224.858	213.75826
225.079	-7173.58588
225.3	2411.47341
225.521	-872.38459
225.741	8295.6706
225.962	6462.43261
226.183	256.86618
226.404	8749.25149
226.624	1693.01527
226.845	7765.71379
227.066	1718.66189
227.286	744.11255
227.507	260.76644
227.728	273.98927
227.948	494.70381
228.169	151.62837
228.389	151.28153
228.61	83.33065
228.831	117.75319
229.051	8.2311
229.272	67.21524
229.492	104.15952
229.713	30.54982
229.933	71.00403
230.154	63.34032
230.374	103.75667
230.595	71.62335
230.815	44.46192
231.036	80.07002
231.256	-12.33842
231.477	141.81287
231.697	81.83389
231.917	84.28897
232.138	121.37855
232.358	238.23394
232.579	205.48835
232.799	36.64919
233.019	199.19298
233.24	233.58677
233.46	76.33356
233.68	131.60629
233.901	81.12637
234.121	55.78775
234.341	22.30431
234.561	-5.23924
234.782	53.02146
235.002	139.09655
235.222	-1.36235
235.442	128.78249
235.662	60.32765
235.883	119.07132
236.103	97.09748
236.323	71.07063
236.543	53.79856
236.763	79.13505
236.983	76.03229
237.203	83.12154
237.423	120.58886
237.643	178.68272
237.864	145.68444
238.084	37.85923
238.304	46.22338
238.524	85.24882
238.744	74.85764
238.964	132.50142
239.184	116.4503
239.404	120.18757
239.624	61.4239
239.843	106.77168
240.063	60.26317
240.283	40.7719
240.503	44.04592
240.723	44.06144
240.943	27.64018
241.163	33.74427
241.383	22.97878
241.603	11.88445
241.822	14.48119
242.042	10.46861
242.262	14.28245
242.482	15.19479
242.702	17.09376
242.921	5.97108
243.141	11.8945
243.361	11.16115
243.581	15.90229
243.8	14.02199
244.02	8.60639
244.24	16.95107
244.459	15.37111
244.679	32.23794
244.899	19.83746
245.118	23.97626
245.338	22.00164
245.558	23.35826
245.777	13.20378
245.997	16.59883
246.216	16.16838
246.436	9.74097
246.655	6.61907
246.875	5.34629
247.094	9.99362
247.314	3.88851
247.533	6.27903
247.753	7.15529
247.972	5.7504
248.192	2.17093
248.411	3.48608
248.631	5.76896
248.85	7.57726
249.07	7.25805
249.289	10.73309
249.508	7.53065
249.728	12.80924
249.947	12.32072
250.166	16.02765
250.386	8.39653
250.605	11.98395
250.824	20.5023
251.044	12.73253
251.263	39.28837
251.482	21.60013
251.701	18.64443
251.921	0.09844
252.14	6.20814
252.359	7.50461
252.578	16.38701
252.798	6.27644
253.017	14.4477
253.236	7.48662
253.455	9.71913
253.674	19.3251
253.893	9.01944
254.112	13.73055
254.331	20.46277
254.551	16.0622
254.77	7.7383
254.989	23.41826
255.208	18.21239
255.427	27.75044
255.646	23.25075
255.865	33.75928
256.084	15.12752
256.303	19.0991
256.522	22.02526
256.741	6.28987
256.96	6.57471
257.179	14.13725
257.397	17.62911
257.616	9.8893
257.835	10.15024
258.054	24.2506
258.273	16.68383
258.492	16.81905
258.711	10.32825
258.93	4.87952
259.148	7.43257
259.367	6.76291
259.586	8.47197
259.805	3.85009
260.023	7.35428
260.242	5.58291
260.461	4.42548
260.68	2.2318
260.898	6.6371
261.117	2.40588
261.336	1.64102
261.554	5.44179
261.773	6.00061
261.992	1.61316
262.21	5.4013
262.429	6.46982
262.648	11.28717
262.866	12.94217
263.085	8.96361
263.303	7.74336
263.522	14.46156
263.74	13.8964
263.959	23.50569
264.178	12.46972
264.396	10.87581
264.615	7.91454
264.833	17.69553
265.051	14.71161
265.27	17.06597
265.488	17.10396
265.707	10.43366
265.925	16.34029
266.144	8.16695
266.362	8.92041
266.58	9.35323
266.799	7.72186
267.017	9.13726
267.235	8.57119
267.454	5.82894
267.672	3.00838
267.89	6.79435
268.109	7.39434
268.327	7.61331
268.545	1.54596
268.763	6.47685
268.982	3.13409
269.2	7.57
269.418	5.03583
269.636	4.19412
269.854	7.14624
270.073	4.94151
270.291	2.93331
270.509	2.97077
270.727	6.77169
270.945	10.85399
271.163	11.03845
271.381	2.81651
271.599	4.7596
271.817	7.59363
272.036	2.80004
272.254	5.19314
272.472	3.91564
272.69	3.81279
272.908	3.99225
273.126	6.12895
273.344	8.09367
273.562	2.93506
273.779	4.37902
273.997	6.6628
274.215	6.67061
274.433	4.61481
274.651	6.85738
274.869	6.62858
275.087	4.16042
275.305	6.58804
275.523	3.88095
275.74	4.57568
275.958	8.54948
276.176	12.2622
276.394	4.1714
276.612	5.04976
276.829	4.99894
277.047	4.48361
277.265	4.99181
277.483	5.30598
277.7	6.45377
277.918	5.41193
278.136	9.66756
278.353	4.67228
278.571	2.9225
278.789	7.53494
279.006	1.90661
279.224	4.5321
279.442	7.85709
279.659	5.50886
279.877	3.39753
280.094	7.90444
280.312	1.63884
280.529	5.34959
280.747	1.95782
280.964	4.45766
281.182	8.46209
281.399	4.50923
281.617	5.45175
281.834	3.98195
282.052	2.93009
282.269	4.82897
282.487	4.10361
282.704	3.516
282.921	3.3287
283.139	5.09974
283.356	6.65274
283.574	6.20182
283.791	2.90206
284.008	8.03228
284.226	4.7577
284.443	5.18839
284.66	6.24065
284.877	5.40045
285.095	3.39144
285.312	2.50283
285.529	1.4516
285.746	1.36388
285.964	3.28994
286.181	2.12298
286.398	2.98537
286.615	4.36382
286.832	4.03972
287.05	1.20982
287.267	2.9306
287.484	3.09339
287.701	4.29491
287.918	3.97808
288.135	4.28004
288.352	1.94298
288.569	2.26539
288.786	3.81703
289.003	2.8676
289.22	4.57222
289.437	2.61416
289.654	4.26876
289.871	4.49017
290.088	4.27315
290.305	3.43344
290.522	3.07511
290.739	3.08512
290.956	4.65776
291.173	5.45272
291.39	5.09232
291.607	3.47696
291.824	3.12634
292.04	2.18683
292.257	4.61014
292.474	4.87565
292.691	3.08678
292.908	1.63201
293.125	2.56223
293.341	1.69757
293.558	7.60479
293.775	3.35027
293.992	3.16923
294.208	1.38838
294.425	2.11704
294.642	2.81145
294.858	4.05616
295.075	1.19804
295.292	3.05401
295.508	3.59378
295.725	5.11914
295.942	2.60405
296.158	1.86227
296.375	3.03577
296.591	2.40646
296.808	2.43377
297.024	2.95257
297.241	3.32143
297.458	3.48332
297.674	0.41978
297.891	2.70105
298.107	2.23115
298.323	1.69514
298.54	4.13684
298.756	2.1885
298.973	1.06808
299.189	4.36574
299.406	2.07794
299.622	4.29591
299.838	4.51834
300.055	3.95643
300.271	1.12238
300.487	1.87252
300.704	2.05882
300.92	1.08343
301.136	5.87784
301.353	4.55743
301.569	3.08968
301.785	3.5468
302.001	4.07981
302.218	3.67097
302.434	3.92505
302.65	1.48969
302.866	2.35311
303.083	6.13496
303.299	5.83442
303.515	3.20681
303.731	3.51404
303.947	1.32732
304.163	2.44511
304.379	3.353
304.595	3.60646
304.812	2.44405
305.028	2.18552
305.244	2.67055
305.46	3.97291
305.676	4.26362
305.892	4.98759
306.108	3.848
306.324	2.95778
306.54	5.76203
306.756	3.78895
306.972	3.72001
307.187	2.88193
307.403	5.31251
307.619	2.52431
307.835	4.70891
308.051	5.04109
308.267	1.86053
308.483	4.61766
308.699	3.83355
308.914	3.2323
309.13	3.30621
309.346	1.23258
309.562	1.9169
309.778	1.33786
309.993	3.84205
310.209	3.16236
310.425	1.65725
310.641	2.86353
310.856	1.79907
311.072	1.75904
311.288	2.9033
311.503	3.18355
311.719	1.10839
311.935	0.95251
312.15	3.63681
312.366	3.32009
312.581	3.82992
312.797	2.96906
313.013	4.10918
313.228	2.46976
313.444	3.2121
313.659	2.11631
313.875	3.86753
314.09	2.99986
314.306	5.08391
314.521	4.16703
314.737	4.22911
314.952	3.61993
315.168	3.41623
315.383	3.81785
315.599	2.98805
315.814	2.98707
316.029	4.47661
316.245	1.77093
316.46	1.17247
316.675	4.98075
316.891	5.81601
317.106	7.02601
317.321	4.13064
317.537	4.05624
317.752	4.47466
317.967	4.58916
318.183	2.6242
318.398	2.96448
318.613	4.74044
318.828	5.27044
319.043	4.50355
319.259	3.01997
319.474	3.59168
319.689	4.83223
319.904	1.11676
320.119	4.55164
320.334	3.83239
320.549	3.0505
320.765	5.12834
320.98	3.96995
321.195	4.56903
321.41	3.56387
321.625	4.4909
321.84	5.73104
322.055	5.69761
322.27	2.49007
322.485	2.0716
322.7	3.84726
322.915	4.81481
323.13	2.43833
323.345	5.33922
323.56	4.27651
323.775	4.43712
323.989	4.23203
324.204	3.72402
324.419	4.57729
324.634	1.80995
324.849	3.29746
325.064	6.12033
325.279	4.75082
325.493	4.23615
325.708	4.76228
325.923	2.48931
326.138	2.77003
326.352	5.53258
326.567	4.73335
326.782	3.10693
326.997	2.63285
327.211	4.35651
327.426	3.97868
327.641	3.33069
327.855	1.67434
328.07	4.38848
328.285	5.8997
328.499	3.22771
328.714	3.9449
328.928	4.44449
329.143	3.65734
329.358	5.07195
329.572	4.90043
329.787	5.42837
330.001	7.17512
330.216	2.16486
330.43	6.12304
330.645	5.67255
330.859	4.73507
331.074	2.59785
331.288	3.87911
331.503	5.68367
331.717	2.35373
331.931	3.68876
332.146	3.98248
332.36	6.23727
332.575	4.17184
332.789	4.01285
333.003	3.55615
333.218	4.40435
333.432	2.89507
333.646	4.7244
333.86	5.82676
334.075	6.2292
334.289	3.0287
334.503	2.2843
334.717	4.50242
334.932	4.40923
335.146	5.02175
335.36	3.06166
335.574	4.81175
335.788	4.62261
336.003	5.21865
336.217	5.15079
336.431	4.50614
336.645	3.3493
336.859	2.58716
337.073	3.82768
337.287	3.90321
337.501	2.44327
337.715	4.04353
337.929	4.35645
338.143	2.41153
338.357	3.49368
338.571	2.83948
338.785	4.53241
338.999	3.07747
339.213	3.16287
339.427	2.21915
339.641	5.30949
339.855	3.27308
340.069	3.01048
340.283	4.98873
340.497	5.74077
340.711	4.3447
340.924	3.64321
341.138	2.63553
341.352	2.25144
341.566	3.82703
341.78	1.72063
341.993	3.00116
342.207	2.75195
342.421	4.13896
342.635	3.62995
342.848	3.1222
343.062	1.02238
343.276	3.04314
343.49	6.29181
343.703	2.96625
343.917	4.76349
344.131	4.91073
344.344	2.83762
344.558	3.16197
344.771	2.51587
344.985	5.00906
345.199	5.62544
345.412	4.0286
345.626	4.08918
345.839	1.73062
346.053	2.46116
346.266	2.51009
346.48	4.48199
346.693	4.03553
346.907	4.08285
347.12	2.55903
347.334	3.82596
347.547	4.04045
347.76	3.45711
347.974	4.88854
348.187	4.11319
348.401	3.49994
348.614	2.77512
348.827	3.51625
349.041	4.21327
349.254	1.8338
349.467	3.395
349.681	2.38811
349.894	2.89433
350.107	4.86892
350.32	5.85651
350.534	1.99095
350.747	3.4176
350.96	2.64015
351.173	2.84504
351.386	3.11671
351.6	3.05866
351.813	2.99999
352.026	3.63457
352.239	2.30188
352.452	3.34648
352.665	4.76745
352.878	3.27375
353.092	6.03649
353.305	4.37049
353.518	3.7519
353.731	2.49182
353.944	4.58409
354.157	3.08992
354.37	2.7433
354.583	2.3115
354.796	1.90192
355.009	4.91292
355.222	3.66722
355.435	3.61984
355.647	4.65134
355.86	2.67903
356.073	3.57883
356.286	3.15329
356.499	4.43369
356.712	4.2239
356.925	3.94461
357.138	4.53447
357.35	2.51454
357.563	3.15096
357.776	3.64867
357.989	3.4253
358.201	4.1992
358.414	3.8837
358.627	4.72994
358.84	3.36558
359.052	2.29581
359.265	2.39459
359.478	4.43166
359.69	0.97945
359.903	4.40407
360.116	4.34981
360.328	1.82347
360.541	4.23115
360.753	2.54513
360.966	3.03255
361.179	3.05139
361.391	2.91929
361.604	2.5072
361.816	3.03003
362.029	2.87139
362.241	2.5353
362.454	3.00192
362.666	2.63769
362.879	3.74927
363.091	3.12468
363.304	2.80021
363.516	3.38661
363.728	2.1983
363.941	4.04239
364.153	3.20755
364.366	1.18808
364.578	2.3446
364.79	3.83145
365.003	3.35223
365.215	2.90427
365.427	3.88824
365.639	4.61143
365.852	3.58536
366.064	5.12321
366.276	2.90249
366.488	3.83589
366.701	3.07377
366.913	3.13229
367.125	3.30153
367.337	2.78634
367.549	2.83634
367.762	3.37925
367.974	3.30894
368.186	3.05616
368.398	4.38635
368.61	4.05021
368.822	4.12996
369.034	3.30877
369.246	4.1111
369.458	5.97357
369.67	2.47003
369.882	5.27378
370.094	1.50654
370.306	4.91835
370.518	2.97667
370.73	2.85718
370.942	2.68154
371.154	3.20109
371.366	3.05844
371.578	3.9066
371.79	2.82974
372.002	4.58555
372.214	5.333
372.425	3.51372
372.637	4.94716
372.849	3.93202
373.061	1.30907
373.273	4.03828
373.484	3.95219
373.696	4.32958
373.908	1.17507
374.12	4.61998
374.331	3.82542
374.543	2.7319
374.755	2.62383
374.967	3.52498
375.178	4.3045
375.39	3.24689
375.602	3.47206
375.813	2.03708
376.025	2.30639
376.236	3.47276
376.448	3.51851
376.66	3.20467
376.871	3.04083
377.083	4.24166
377.294	4.62163
377.506	3.00816
377.717	4.77921
377.929	3.71613
378.14	2.94038
378.352	4.02362
378.563	3.95021
378.775	4.78378
378.986	2.82059
379.197	3.74515
379.409	2.92615
379.62	4.33615
379.832	3.61253
380.043	3.3065
380.254	3.65946
380.466	2.31613
380.677	6.10007
380.888	5.66867
381.1	6.12751
381.311	6.01715
381.522	3.5099
381.733	6.2897
381.945	3.32826
382.156	3.45049
382.367	3.06713
382.578	6.24913
382.789	6.08284
383.001	2.94876
383.212	4.97334
383.423	5.20749
383.634	4.51799
383.845	4.08546
384.056	3.10117
384.267	3.61741
384.478	3.52023
384.69	2.51814
384.901	4.04085
385.112	3.89397
385.323	5.28892
385.534	3.96728
385.745	3.79689
385.956	4.02774
386.167	2.69874
386.378	4.23187
386.588	2.56644
386.799	2.687
387.01	2.06613
387.221	4.41922
387.432	3.62848
387.643	5.49205
387.854	3.25327
388.065	3.27168
388.275	3.34231
388.486	3.19735
388.697	3.57639
388.908	3.20677
389.119	4.63169
389.329	5.23192
389.54	3.65699
389.751	3.85806
389.962	4.75281
390.172	3.72322
390.383	3.1811
390.594	2.8709
390.804	2.8575
391.015	2.95841
391.226	3.49993
391.436	4.14915
391.647	3.87436
391.858	4.17037
392.068	2.02706
392.279	2.66679
392.489	3.66333
392.7	4.50777
392.91	2.56283
393.121	2.91978
393.331	4.00162
393.542	4.71235
393.752	4.19039
393.963	3.80307
394.173	3.64374
394.384	4.23225
394.594	3.59195
394.804	2.62607
395.015	3.70586
395.225	4.29682
395.436	2.63291
395.646	4.0676
395.856	3.00496
396.067	2.4009
396.277	4.5139
396.487	4.08018
396.697	3.9063
396.908	4.38295
397.118	4.30713
397.328	3.77467
397.538	4.55316
397.749	3.1071
397.959	4.4479
398.169	4.23507
398.379	2.45486
398.589	4.28399
398.8	3.70506
399.01	3.84516
399.22	3.40963
399.43	5.63407
399.64	3.47134
399.85	4.17258
400.06	3.70207
400.27	3.11646
400.48	3.6193
400.69	4.92518
400.9	3.22252
401.11	2.9751
401.32	4.43038
401.53	3.2714
401.74	5.12921
401.95	4.22833
402.16	3.08514
402.37	4.24166
402.58	3.09236
402.79	4.17893
403	4.27769
403.209	3.10532
403.419	4.36569
403.629	3.21115
403.839	4.3401
404.049	4.47748
404.258	3.06023
404.468	2.85444
404.678	4.24397
404.888	4.43492
405.097	3.05601
405.307	3.60598
405.517	4.27436
405.727	3.98743
405.936	3.45009
406.146	3.98721
406.356	4.86375
406.565	3.75542
406.775	3.3976
406.984	3.47906
407.194	5.23396
407.404	3.83922
407.613	4.09374
407.823	4.45262
408.032	5.02772
408.242	4.68336
408.451	3.32308
408.661	3.72224
408.87	5.41405
409.08	3.19031
409.289	4.12377
409.499	3.97435
409.708	3.87246
409.918	2.06404
410.127	3.8147
410.336	5.18533
410.546	4.40468
410.755	3.57323
410.964	3.46412
411.174	3.31403
411.383	4.38159
411.592	4.35629
411.802	3.16962
412.011	4.72502
412.22	3.85096
412.429	5.22535
412.639	5.0988
412.848	5.08899
413.057	5.38276
413.266	4.96903
413.475	3.84453
413.685	4.72202
413.894	4.70792
414.103	5.07996
414.312	4.63401
414.521	3.92939
414.73	4.25754
414.939	5.53809
415.148	4.47269
415.357	4.28885
415.566	3.71007
415.776	3.64014
415.985	3.55549
416.194	4.66352
416.403	5.43957
416.611	2.97305
416.82	3.48768
417.029	4.02887
417.238	3.37916
417.447	3.23525
417.656	3.55469
417.865	3.38992
418.074	3.59055
418.283	3.84781
418.492	4.5937
418.7	4.35101
418.909	5.15237
419.118	4.00861
419.327	4.20939
419.536	4.0744
419.744	3.62197
419.953	4.61219
420.162	4.67981
420.371	3.65591
420.579	3.74175
420.788	4.80018
420.997	4.79345
421.205	4.93786
421.414	4.62397
421.623	4.72861
421.831	4.20976
422.04	4.99496
422.249	4.0879
422.457	4.5441
422.666	4.01515
422.874	4.95314
423.083	4.92478
423.291	4.78216
423.5	4.64015
423.708	4.83911
423.917	5.34832
424.125	4.72592
424.334	4.48117
424.542	6.34197
424.751	5.54187
424.959	5.32352
425.167	5.53623
425.376	5.42408
425.584	4.58188
425.793	4.9146
426.001	4.09525
