Data from WindowProjectSample_Transmission__83__00083.txt Node

Date: Sat May 03 18:07:56 EDT 2025
User: jessi
Spectrometer: SR400872
Trigger mode: 0
Integration Time (sec): 5.000010E-1
Scans to average: 6
Electric dark correction enabled: true
Nonlinearity correction enabled: true
Boxcar width: 0
XAxis mode: Wavelengths
Number of Pixels in Spectrum: 3648
>>>>>Begin Spectral Data<<<<<
184.909	3379.80249
185.132	3984.39441
185.355	-4155.29551
185.578	4128.69563
185.801	-508.51338
186.024	-4922.03936
186.247	1603.09653
186.47	516.48968
186.693	19.64361
186.916	4797.9051
187.139	3165.46495
187.362	-2044.39971
187.585	5343.93752
187.808	25381.64919
188.031	114.81131
188.254	-4429.9586
188.476	862.28271
188.699	3735.29278
188.922	-134.45864
189.145	-7005.48732
189.368	-353.34008
189.591	-732.18098
189.813	-3102.76521
190.036	937.39297
190.259	-9012.86388
190.482	1397.34219
190.705	3949.70324
190.927	-1979.06611
191.15	-6990.03659
191.373	6507.70741
191.595	-1262.68091
191.818	2060.66692
192.041	-607.54795
192.263	1980.01247
192.486	-2465.30225
192.709	-22354.10632
192.931	1787.78577
193.154	-3801.35064
193.377	-2423.01593
193.599	4834.73171
193.822	1887.79612
194.044	5618.24009
194.267	861.23577
194.489	-42.21532
194.712	2485.05067
194.934	8885.60871
195.157	-20759.0624
195.379	2016.99431
195.602	1678.16553
195.824	1435.88545
196.047	44144.63347
196.269	3180.83725
196.492	-1950.53691
196.714	-1247.3683
196.936	1884.83094
197.159	-11463.35574
197.381	-399.20503
197.604	-4692.20754
197.826	-16539.20659
198.048	10316.84511
198.271	-8895.05088
198.493	4312.52378
198.715	3603.52867
198.938	-590.81338
199.16	-19592.60927
199.382	1191.78756
199.604	-1731.30912
199.827	-3656.61559
200.049	2292.3401
200.271	-6605.98832
200.493	-45324.84129
200.715	3865.6491
200.938	-3040.82137
201.16	-2569.7111
201.382	-1720.62888
201.604	-3428.50179
201.826	3519.42501
202.048	3487.42648
202.27	-1107.48133
202.492	-3470.9311
202.715	-1383.27839
202.937	-17495.98564
203.159	2575.41066
203.381	2259.43665
203.603	-3256.63899
203.825	-957.24715
204.047	56301.88115
204.269	-1403.36432
204.491	-1258.55737
204.713	65163.06723
204.935	-3176.02442
205.156	-985.6662
205.378	-4874.33335
205.6	-1206.16992
205.822	2371.90885
206.044	-441.91967
206.266	6258.78048
206.488	813.58484
206.71	3401.72043
206.932	1578.32588
207.153	-1607.19186
207.375	-2937.50585
207.597	3803.53055
207.819	29616.55098
208.041	4080.99137
208.262	-1716.44911
208.484	-1225.06145
208.706	-1460.19876
208.927	3322.83812
209.149	4631.39473
209.371	-5363.64556
209.593	324.48085
209.814	-27053.31425
210.036	2287.16393
210.258	-862.00189
210.479	4237.20692
210.701	-3212.57903
210.922	-11330.90145
211.144	-912.98648
211.366	4972.15949
211.587	-2477.10534
211.809	-4869.808
212.03	-834.14979
212.252	-521.67088
212.473	3363.81784
212.695	-685.48026
212.916	-879.48921
213.138	550.73147
213.359	-1397.87294
213.581	12458.60081
213.802	-2143.52281
214.024	-2457.22951
214.245	-6567.31384
214.466	-327.39955
214.688	-3153.70842
214.909	-18597.46301
215.131	-4683.98657
215.352	-2160.62168
215.573	11741.33353
215.795	1579.89925
216.016	6562.15581
216.237	-526.85758
216.459	6785.37797
216.68	-3330.28001
216.901	-2799.47904
217.122	-2260.89089
217.344	-6832.1745
217.565	-2832.99491
217.786	2310.11434
218.007	1783.95654
218.228	-488.17464
218.45	-4273.10282
218.671	1408.02642
218.892	3611.02095
219.113	1794.50949
219.334	315.36128
219.555	-7478.15452
219.776	12352.66666
219.997	4142.19488
220.219	1878.06846
220.44	1120.34435
220.661	1001.2835
220.882	-2657.27854
221.103	-1141.72755
221.324	2691.20677
221.545	2942.77681
221.766	-3268.73079
221.987	-540.67866
222.208	-10915.091
222.429	170772.96447
222.65	-334.08581
222.87	-9800.18665
223.091	2701.85331
223.312	-1168.29165
223.533	2534.02596
223.754	2021.5197
223.975	2650.09393
224.196	-5639.32137
224.417	-2692.33001
224.637	7653.9258
224.858	1904.42658
225.079	1388.79683
225.3	1155.79393
225.521	4779.08603
225.741	925.68025
225.962	1141.42614
226.183	-474.32782
226.404	1493.05524
226.624	1128.98008
226.845	1565.32873
227.066	906.33984
227.286	554.89903
227.507	201.06885
227.728	185.72376
227.948	288.61957
228.169	89.25092
228.389	98.85636
228.61	48.51692
228.831	64.28028
229.051	8.5417
229.272	39.86727
229.492	48.49853
229.713	16.1611
229.933	40.51384
230.154	32.84624
230.374	56.79657
230.595	41.2274
230.815	27.05731
231.036	38.03016
231.256	-4.70004
231.477	74.13524
231.697	46.46099
231.917	49.84785
232.138	71.4086
232.358	131.18022
232.579	120.42461
232.799	14.3888
233.019	110.34434
233.24	138.36011
233.46	48.04477
233.68	84.0229
233.901	55.79185
234.121	31.03236
234.341	13.10404
234.561	0.6244
234.782	46.47706
235.002	81.58407
235.222	-0.7993
235.442	70.17542
235.662	39.04795
235.883	78.6076
236.103	62.36408
236.323	44.57863
236.543	37.24796
236.763	47.19792
236.983	44.01004
237.203	60.42377
237.423	78.53709
237.643	106.18393
237.864	92.25805
238.084	23.76927
238.304	40.05534
238.524	59.24102
238.744	42.90458
238.964	71.11704
239.184	69.5293
239.404	75.09533
239.624	40.61154
239.843	69.09482
240.063	36.31022
240.283	26.78457
240.503	29.5996
240.723	28.5479
240.943	12.21067
241.163	21.23428
241.383	15.32845
241.603	8.32155
241.822	8.98913
242.042	6.29535
242.262	9.43118
242.482	9.53305
242.702	11.55899
242.921	4.01037
243.141	7.93794
243.361	6.67463
243.581	10.49801
243.8	8.33948
244.02	5.72885
244.24	10.85053
244.459	10.5952
244.679	21.2121
244.899	13.88232
245.118	15.06276
245.338	14.10997
245.558	17.0154
245.777	9.4402
245.997	11.42211
246.216	11.0084
246.436	6.38569
246.655	4.37884
246.875	3.34812
247.094	6.62239
247.314	2.37659
247.533	3.75457
247.753	4.84671
247.972	3.8308
248.192	1.25421
248.411	2.46146
248.631	4.28711
248.85	5.313
249.07	3.99055
249.289	6.94178
249.508	5.32548
249.728	7.55747
249.947	8.58637
250.166	9.53529
250.386	4.97887
250.605	8.00001
250.824	12.36823
251.044	10.41895
251.263	27.90399
251.482	14.62596
251.701	13.46163
251.921	0.33648
252.14	4.50929
252.359	4.90195
252.578	11.21137
252.798	3.93495
253.017	10.31964
253.236	5.24682
253.455	7.13774
253.674	12.3018
253.893	6.32016
254.112	8.88319
254.331	13.23468
254.551	10.11533
254.77	6.02127
254.989	16.6685
255.208	13.14848
255.427	18.1244
255.646	16.19297
255.865	23.85074
256.084	9.70246
256.303	12.67504
256.522	15.63791
256.741	3.92191
256.96	4.68526
257.179	10.69392
257.397	12.20471
257.616	7.31648
257.835	7.1069
258.054	16.91261
258.273	10.97948
258.492	12.53411
258.711	7.40986
258.93	3.07957
259.148	4.57286
259.367	4.55118
259.586	5.84717
259.805	2.56615
260.023	5.60274
260.242	4.26278
260.461	3.02384
260.68	1.72498
260.898	4.97431
261.117	1.86653
261.336	1.40617
261.554	4.34231
261.773	3.92619
261.992	0.94118
262.21	4.31213
262.429	5.17855
262.648	8.06455
262.866	9.44846
263.085	6.29276
263.303	5.64141
263.522	9.97464
263.74	10.56688
263.959	16.1922
264.178	8.81566
264.396	7.61859
264.615	5.88669
264.833	13.35325
265.051	11.15077
265.27	10.96697
265.488	12.53772
265.707	7.67055
265.925	12.05293
266.144	5.79714
266.362	7.34617
266.58	7.12028
266.799	5.45155
267.017	6.90494
267.235	6.25265
267.454	3.60254
267.672	2.57214
267.89	5.00202
268.109	5.22207
268.327	4.90404
268.545	1.29898
268.763	4.61238
268.982	1.73845
269.2	5.93123
269.418	3.78454
269.636	2.8295
269.854	4.80335
270.073	4.22748
270.291	1.905
270.509	2.31188
270.727	5.15074
270.945	8.11684
271.163	8.08313
271.381	2.04264
271.599	3.5308
271.817	6.16439
272.036	2.20439
272.254	3.40205
272.472	2.75726
272.69	2.73107
272.908	2.74081
273.126	4.92744
273.344	6.16208
273.562	2.41252
273.779	2.8495
273.997	4.45981
274.215	4.91772
274.433	3.27541
274.651	5.16528
274.869	5.10883
275.087	3.29956
275.305	5.045
275.523	2.88908
275.74	3.53275
275.958	6.33166
276.176	8.93354
276.394	2.87012
276.612	3.76624
276.829	4.02698
277.047	3.13395
277.265	3.52296
277.483	4.27782
277.7	4.77782
277.918	3.80749
278.136	7.2494
278.353	3.33999
278.571	1.96257
278.789	5.70415
279.006	1.22533
279.224	3.22473
279.442	5.96437
279.659	3.86406
279.877	2.75002
280.094	6.28985
280.312	1.22737
280.529	3.99824
280.747	1.16526
280.964	3.08992
281.182	6.41931
281.399	3.18781
281.617	4.50235
281.834	3.08054
282.052	2.69389
282.269	3.70576
282.487	2.83896
282.704	2.47315
282.921	2.74321
283.139	3.79199
283.356	4.95064
283.574	4.18112
283.791	2.06097
284.008	5.78517
284.226	3.20225
284.443	3.77667
284.66	4.75574
284.877	3.9058
285.095	2.54276
285.312	1.94147
285.529	1.38109
285.746	0.97094
285.964	2.27875
286.181	1.56114
286.398	2.29481
286.615	3.18921
286.832	3.03681
287.05	0.92362
287.267	1.87565
287.484	2.27722
287.701	2.99024
287.918	2.87212
288.135	3.16655
288.352	1.42271
288.569	1.57856
288.786	2.77263
289.003	2.11037
289.22	3.17536
289.437	1.98366
289.654	3.4244
289.871	3.48872
290.088	3.29663
290.305	2.66201
290.522	2.07001
290.739	2.63605
290.956	3.61934
291.173	4.41558
291.39	3.84413
291.607	2.67469
291.824	2.02245
292.04	1.41803
292.257	3.42334
292.474	3.74047
292.691	2.41488
292.908	1.22709
293.125	2.06454
293.341	1.46685
293.558	5.82832
293.775	2.54213
293.992	2.12914
294.208	1.05924
294.425	1.38919
294.642	2.10758
294.858	3.34946
295.075	0.88584
295.292	2.29878
295.508	2.82264
295.725	4.16594
295.942	1.93866
296.158	1.52499
296.375	2.45105
296.591	1.7419
296.808	1.98803
297.024	2.25577
297.241	2.54979
297.458	2.62855
297.674	0.243
297.891	2.18077
298.107	1.62333
298.323	1.28993
298.54	3.05339
298.756	1.43067
298.973	0.70823
299.189	3.30926
299.406	1.41789
299.622	3.28651
299.838	3.1827
300.055	2.90405
300.271	0.87379
300.487	1.06904
300.704	1.40886
300.92	0.88503
301.136	4.3269
301.353	3.18866
301.569	2.33682
301.785	2.5607
302.001	3.18207
302.218	2.79133
302.434	2.68642
302.65	0.83128
302.866	1.88797
303.083	4.38913
303.299	4.21347
303.515	2.22351
303.731	2.42757
303.947	0.97978
304.163	1.47564
304.379	2.60993
304.595	2.83697
304.812	1.72142
305.028	1.5624
305.244	1.83103
305.46	3.28521
305.676	3.21874
305.892	3.55519
306.108	2.42332
306.324	1.70059
306.54	4.16021
306.756	3.13605
306.972	2.87496
307.187	2.02805
307.403	3.7727
307.619	1.74459
307.835	3.48349
308.051	3.70229
308.267	0.82324
308.483	3.26066
308.699	2.87433
308.914	2.37324
309.13	2.19765
309.346	0.69953
309.562	1.16776
309.778	0.77609
309.993	2.74524
310.209	2.14883
310.425	0.90547
310.641	1.95633
310.856	1.08539
311.072	1.08156
311.288	1.93881
311.503	2.34462
311.719	0.46237
311.935	0.40827
312.15	2.5054
312.366	2.14448
312.581	2.89058
312.797	2.37529
313.013	2.86428
313.228	1.73672
313.444	2.23085
313.659	1.58268
313.875	2.62076
314.09	1.99708
314.306	3.68791
314.521	3.07723
314.737	2.84658
314.952	2.5028
315.168	2.13055
315.383	2.93611
315.599	2.0618
315.814	2.02356
316.029	3.02605
316.245	1.03818
316.46	0.89568
316.675	3.5967
316.891	4.25771
317.106	5.08239
317.321	2.96777
317.537	2.79909
317.752	3.17406
317.967	3.2396
318.183	1.66521
318.398	1.88463
318.613	3.28808
318.828	3.80863
319.043	3.13444
319.259	1.96155
319.474	2.71883
319.689	3.45657
319.904	0.59527
320.119	3.0469
320.334	2.501
320.549	2.03673
320.765	3.2657
320.98	2.41443
321.195	3.34453
321.41	1.7966
321.625	3.01586
321.84	4.22694
322.055	4.21389
322.27	1.68818
322.485	1.2945
322.7	2.39486
322.915	3.44056
323.13	1.52539
323.345	3.88438
323.56	2.85456
323.775	3.07805
323.989	2.89701
324.204	2.47794
324.419	3.067
324.634	1.1196
324.849	2.15557
325.064	4.7291
325.279	3.42944
325.493	3.0274
325.708	3.45976
325.923	1.60039
326.138	1.55166
326.352	3.87547
326.567	3.31631
326.782	1.99535
326.997	1.65376
327.211	2.84336
327.426	2.86169
327.641	1.99602
327.855	0.73286
328.07	2.87901
328.285	4.21073
328.499	2.02495
328.714	3.1659
328.928	3.12693
329.143	2.50629
329.358	3.47813
329.572	3.38389
329.787	3.71789
330.001	4.97636
330.216	0.94611
330.43	4.13989
330.645	4.10925
330.859	3.30276
331.074	1.75677
331.288	2.48421
331.503	4.0101
331.717	1.18426
331.931	2.33607
332.146	2.51407
332.36	4.22285
332.575	3.02053
332.789	2.47389
333.003	2.37055
333.218	2.91511
333.432	1.9353
333.646	2.96113
333.86	3.9309
334.075	4.16191
334.289	1.97917
334.503	1.56112
334.717	3.16495
334.932	3.00161
335.146	3.89407
335.36	2.06926
335.574	3.06782
335.788	2.9653
336.003	3.70668
336.217	3.26806
336.431	2.96949
336.645	1.81814
336.859	1.37139
337.073	2.0198
337.287	2.55424
337.501	1.44108
337.715	2.63686
337.929	3.01848
338.143	1.43262
338.357	2.44418
338.571	1.55513
338.785	2.95514
338.999	1.87001
339.213	1.87838
339.427	0.90804
339.641	3.46257
339.855	2.16279
340.069	1.8007
340.283	3.35819
340.497	4.04643
340.711	2.81954
340.924	1.96356
341.138	1.33529
341.352	1.07103
341.566	2.50407
341.78	0.60763
341.993	1.8135
342.207	1.38148
342.421	2.63395
342.635	2.48067
342.848	1.72441
343.062	0.15674
343.276	1.78878
343.49	4.47086
343.703	1.68337
343.917	3.04941
344.131	3.18944
344.344	1.65455
344.558	1.96464
344.771	1.30654
344.985	3.48797
345.199	3.82861
345.412	2.39683
345.626	2.6318
345.839	0.70628
346.053	1.25343
346.266	1.21601
346.48	3.16857
346.693	2.44265
346.907	2.75887
347.12	1.33349
347.334	2.51101
347.547	2.59252
347.76	2.11258
347.974	3.24829
348.187	2.77335
348.401	1.93
348.614	1.77964
348.827	2.09294
349.041	2.97838
349.254	0.88935
349.467	2.12814
349.681	1.00718
349.894	1.69109
350.107	3.57851
350.32	3.60352
350.534	0.6853
350.747	1.8868
350.96	1.55583
351.173	1.70925
351.386	1.99359
351.6	1.87916
351.813	1.59946
352.026	2.18837
352.239	1.09836
352.452	1.88611
352.665	3.00399
352.878	1.86449
353.092	4.22083
353.305	2.70171
353.518	2.29599
353.731	1.30849
353.944	3.47007
354.157	1.7091
354.37	1.42327
354.583	1.14595
354.796	0.80144
355.009	3.12178
355.222	1.9897
355.435	2.09367
355.647	3.19715
355.86	1.2488
356.073	2.10922
356.286	1.70246
356.499	2.73381
356.712	2.3129
356.925	2.46882
357.138	3.02036
357.35	1.24037
357.563	1.76856
357.776	2.17955
357.989	1.80875
358.201	2.46239
358.414	2.11535
358.627	2.99334
358.84	1.84618
359.052	1.13802
359.265	1.06201
359.478	2.93826
359.69	-0.20647
359.903	2.56528
360.116	2.71586
360.328	0.64357
360.541	2.60839
360.753	1.28049
360.966	1.49004
361.179	1.6603
361.391	1.52237
361.604	1.04032
361.816	1.46133
362.029	1.25845
362.241	1.1793
362.454	1.49894
362.666	1.12031
362.879	1.98864
363.091	1.52635
363.304	1.2316
363.516	1.6304
363.728	0.90814
363.941	2.21377
364.153	1.61582
364.366	0.31022
364.578	1.07458
364.79	2.30185
365.003	1.954
365.215	1.42916
365.427	2.3687
365.639	2.95869
365.852	2.08742
366.064	3.36017
366.276	1.47372
366.488	2.23111
366.701	1.59138
366.913	1.57127
367.125	1.6827
367.337	1.32941
367.549	1.53352
367.762	1.86032
367.974	1.85567
368.186	1.42407
368.398	2.79027
368.61	2.31141
368.822	2.30956
369.034	1.70136
369.246	2.48166
369.458	3.93563
369.67	1.18629
369.882	3.39019
370.094	0.2947
370.306	3.22222
370.518	1.56925
370.73	1.26019
370.942	1.32506
371.154	1.62583
371.366	1.41028
371.578	2.11959
371.79	1.32868
372.002	2.84398
372.214	3.3753
372.425	1.83118
372.637	2.91544
372.849	1.99828
373.061	0.09871
373.273	2.21659
373.484	2.32855
373.696	2.62388
373.908	0.12361
374.12	2.86454
374.331	2.31036
374.543	1.33573
374.755	1.13866
374.967	2.05115
375.178	2.64623
375.39	1.92413
375.602	1.86416
375.813	0.98334
376.025	1.01948
376.236	1.94131
376.448	2.04216
376.66	1.66499
376.871	1.67504
377.083	2.59579
377.294	2.94954
377.506	1.48355
377.717	2.84565
377.929	2.1156
378.14	1.45584
378.352	2.37389
378.563	2.41186
378.775	2.97809
378.986	1.26054
379.197	2.11422
379.409	1.44299
379.62	2.5833
379.832	2.15084
380.043	1.8221
380.254	2.10244
380.466	1.10058
380.677	4.09774
380.888	3.6334
381.1	3.9453
381.311	3.93252
381.522	2.12552
381.733	4.3414
381.945	1.77878
382.156	1.96827
382.367	1.7694
382.578	4.27445
382.789	4.26201
383.001	1.65893
383.212	3.07032
383.423	3.44249
383.634	2.71446
383.845	2.53775
384.056	1.72094
384.267	1.98294
384.478	2.00757
384.69	1.2006
384.901	2.45607
385.112	2.36904
385.323	3.30448
385.534	2.3921
385.745	2.39762
385.956	2.33148
386.167	1.34059
386.378	2.4863
386.588	1.49273
386.799	1.36886
387.01	0.91714
387.221	2.85211
387.432	1.96659
387.643	3.32702
387.854	1.74726
388.065	1.69019
388.275	1.90318
388.486	1.66472
388.697	2.01001
388.908	1.80615
389.119	3.09215
389.329	3.30852
389.54	2.07233
389.751	2.58516
389.962	3.07326
390.172	2.12772
390.383	1.87469
390.594	1.61586
390.804	1.56855
391.015	1.64133
391.226	2.2429
391.436	2.61496
391.647	2.21788
391.858	2.53943
392.068	0.82639
392.279	1.36086
392.489	2.17472
392.7	2.84994
392.91	1.54092
393.121	1.65228
393.331	2.47072
393.542	3.0034
393.752	2.56316
393.963	2.4489
394.173	2.32013
394.384	2.72165
394.594	2.12814
394.804	1.38605
395.015	2.1257
395.225	2.62608
395.436	1.39543
395.646	2.54919
395.856	1.72116
396.067	1.2541
396.277	2.93467
396.487	2.42914
396.697	2.34515
396.908	2.92744
397.118	2.73957
397.328	2.33847
397.538	2.92772
397.749	1.80883
397.959	2.94002
398.169	2.64826
398.379	1.3064
398.589	2.61921
398.8	2.44694
399.01	2.23577
399.22	2.15637
399.43	3.79857
399.64	2.13989
399.85	2.72874
400.06	2.16543
400.27	1.82973
400.48	2.26819
400.69	3.26013
400.9	1.94158
401.11	1.69644
401.32	2.87351
401.53	1.86735
401.74	3.32322
401.95	2.82749
402.16	1.71572
402.37	2.56193
402.58	1.9588
402.79	2.73992
403	2.80035
403.209	1.77458
403.419	2.93224
403.629	1.85832
403.839	2.91023
404.049	2.94257
404.258	1.89733
404.468	1.79378
404.678	2.94969
404.888	3.00668
405.097	2.05646
405.307	2.22235
405.517	2.76129
405.727	2.6668
405.936	2.1282
406.146	2.59966
406.356	3.29393
406.565	2.26584
406.775	1.93747
406.984	1.94125
407.194	3.91478
407.404	2.35374
407.613	2.65469
407.823	3.08463
408.032	3.31838
408.242	3.13587
408.451	2.04292
408.661	2.30451
408.87	3.62801
409.08	1.91122
409.289	2.69174
409.499	2.55064
409.708	2.51575
409.918	1.00119
410.127	2.62242
410.336	3.5148
410.546	3.01399
410.755	2.22932
410.964	2.08312
411.174	1.72388
411.383	2.78864
411.592	2.64368
411.802	1.89401
412.011	3.02792
412.22	2.29479
412.429	3.42747
412.639	3.59501
412.848	3.2552
413.057	3.68039
413.266	3.31735
413.475	2.57389
413.685	3.07694
413.894	3.15929
414.103	3.27222
414.312	3.01864
414.521	2.39359
414.73	2.69782
414.939	3.94745
415.148	2.9271
415.357	2.89609
415.566	2.51295
415.776	2.43461
415.985	2.3342
416.194	3.16349
416.403	3.91887
416.611	1.85246
416.82	2.24847
417.029	2.7361
417.238	2.20936
417.447	2.21457
417.656	2.43761
417.865	2.23913
418.074	2.73497
418.283	2.99404
418.492	3.84795
418.7	3.69602
418.909	4.7575
419.118	3.48108
419.327	3.89814
419.536	3.59184
419.744	3.41803
419.953	4.68385
420.162	4.67627
420.371	3.67577
420.579	3.85483
420.788	4.82565
420.997	4.96289
421.205	4.91329
421.414	4.61182
421.623	4.8248
421.831	4.16793
422.04	5.01779
422.249	3.97649
422.457	4.61741
422.666	3.99623
422.874	5.07919
423.083	4.98376
423.291	4.92377
423.5	4.75145
423.708	4.81238
423.917	5.48281
424.125	4.69624
424.334	4.41946
424.542	6.51502
424.751	5.66771
424.959	5.22747
425.167	5.77435
425.376	5.49155
425.584	4.59383
425.793	4.74989
426.001	3.80144
426.209	4.54614
426.418	3.45168
426.626	3.28352
426.834	3.01054
427.042	3.33617
