Data from WindowProjectSample3_Transmission__36__00036.txt Node

Date: Sun May 04 10:38:36 EDT 2025
User: jessi
Spectrometer: SR400872
Trigger mode: 0
Integration Time (sec): 5.000050E-1
Scans to average: 20
Electric dark correction enabled: true
Nonlinearity correction enabled: true
Boxcar width: 0
XAxis mode: Wavelengths
Number of Pixels in Spectrum: 3648
>>>>>Begin Spectral Data<<<<<
184.909	-1094.37423
185.132	-1357.48066
185.355	-1479.76448
185.578	-975.63383
185.801	621.97109
186.024	-1040.15566
186.247	1086.52961
186.47	-971.3232
186.693	-489.73933
186.916	-961.0543
187.139	-806.80811
187.362	-929.29934
187.585	-1017.9437
187.808	-781.69964
188.031	2956.79257
188.254	-2052.04741
188.476	-1093.53668
188.699	-1181.38305
188.922	801.32027
189.145	-958.04387
189.368	-2544.30016
189.591	-1542.62412
189.813	-1513.24481
190.036	-1085.58843
190.259	-1115.03505
190.482	-1526.67152
190.705	-1935.72852
190.927	-837.42052
191.15	-1159.38165
191.373	-1571.45818
191.595	-1447.54155
191.818	-1500.0059
192.041	-1074.0065
192.263	-1189.48899
192.486	-541.50498
192.709	-1329.1818
192.931	-3020.38055
193.154	-1303.33376
193.377	-1203.66877
193.599	-1844.03037
193.822	-1520.86447
194.044	-1446.06192
194.267	-1217.85482
194.489	-194.99544
194.712	-1230.76643
194.934	-1541.01623
195.157	-663.30441
195.379	-1485.06484
195.602	-783.81431
195.824	-1395.37078
196.047	-2095.55693
196.269	-1059.29503
196.492	-1385.37101
196.714	-742.15396
196.936	-1385.6433
197.159	-914.24916
197.381	-757.21189
197.604	-480.77495
197.826	-1403.86149
198.048	-1295.78749
198.271	-982.19787
198.493	-1159.43225
198.715	-836.07369
198.938	-968.20701
199.16	-2816.46292
199.382	-1272.8976
199.604	-823.27832
199.827	-1093.84654
200.049	-1651.51225
200.271	-1069.6031
200.493	-2218.43505
200.715	-999.06778
200.938	-859.08833
201.16	-910.58704
201.382	-4108.76937
201.604	-1730.66608
201.826	-770.42635
202.048	-854.33399
202.27	-2180.49529
202.492	-2204.07087
202.715	-2613.16536
202.937	-2382.87204
203.159	-1822.60617
203.381	-2693.16223
203.603	-1079.45989
203.825	-6776.2404
204.047	-1129.64457
204.269	-1803.74737
204.491	-1317.19907
204.713	-948.50309
204.935	-1121.83107
205.156	-1258.76155
205.378	-1342.7391
205.6	-946.19817
205.822	-976.48167
206.044	2120.72486
206.266	-2670.87616
206.488	-778.81901
206.71	-1886.44396
206.932	-1299.33874
207.153	-974.83125
207.375	-877.50192
207.597	-1068.24111
207.819	-837.52666
208.041	-1517.60533
208.262	-3169.51339
208.484	-2638.92992
208.706	-2228.97095
208.927	-3297.70834
209.149	-1264.27133
209.371	-1158.35597
209.593	-8743.5639
209.814	-745.87364
210.036	-4339.97419
210.258	-1419.92487
210.479	-1199.80437
210.701	-2167.52656
210.922	-2585.14276
211.144	-2123.77697
211.366	-2376.62723
211.587	2445.6919
211.809	-1168.48831
212.03	-3341.49258
212.252	-3063.00082
212.473	-1102.46574
212.695	-1252.19601
212.916	-9395.78135
213.138	-7223.04434
213.359	-981.90961
213.581	-2178.16221
213.802	-7530.61849
214.024	-1423.63571
214.245	95472.1725
214.466	2433.16147
214.688	-1180.34294
214.909	-747.23956
215.131	-2388.45864
215.352	-1738.81574
215.573	-1225.24878
215.795	-1383.80181
216.016	-2321.28141
216.237	2925.64612
216.459	-1816.45684
216.68	-2196.04376
216.901	-1044.25266
217.122	-1286.99776
217.344	-1104.05324
217.565	-1274.13978
217.786	-1215.76232
218.007	-1367.61795
218.228	-927.47968
218.45	-746.98992
218.671	-6031.40607
218.892	-1060.86013
219.113	-2057.47833
219.334	-129.74252
219.555	-1144.7871
219.776	-1073.4058
219.997	-1263.30627
220.219	-1006.80001
220.44	-1573.04336
220.661	-847.34649
220.882	-1473.2938
221.103	-3239.67399
221.324	-2290.26775
221.545	-2198.58982
221.766	-1145.65007
221.987	-2664.12698
222.208	-1100.55982
222.429	-918.28957
222.65	4662.25277
222.87	5577.53421
223.091	-2644.92966
223.312	-2585.59703
223.533	-2047.17577
223.754	-1131.34977
223.975	-3288.8662
224.196	-7667.83533
224.417	-1821.04459
224.637	1622.89837
224.858	224.03687
225.079	-2442.91022
225.3	2977.29825
225.521	-831.13793
225.741	28219.94856
225.962	-1902.61885
226.183	665.82453
226.404	-3710.77649
226.624	-5092.15692
226.845	9101.31677
227.066	-6216.18568
227.286	1354.2818
227.507	332.86606
227.728	367.76211
227.948	901.88976
228.169	221.64507
228.389	243.04351
228.61	134.61584
228.831	185.11973
229.051	14.29126
229.272	102.7594
229.492	135.29044
229.713	38.63756
229.933	91.90515
230.154	76.77847
230.374	131.14803
230.595	88.87484
230.815	55.84643
231.036	93.72092
231.256	-16.83032
231.477	169.21219
231.697	102.87982
231.917	92.29664
232.138	139.38993
232.358	327.67949
232.579	267.99217
232.799	36.96323
233.019	249.16576
233.24	311.17963
233.46	98.51899
233.68	155.47523
233.901	100.12373
234.121	71.05382
234.341	25.08673
234.561	-16.68517
234.782	67.01112
235.002	178.6183
235.222	-3.61805
235.442	149.67345
235.662	69.45066
235.883	155.80526
236.103	106.91202
236.323	83.67362
236.543	66.43041
236.763	103.63648
236.983	101.32601
237.203	99.29515
237.423	139.06899
237.643	218.44396
237.864	193.74849
238.084	44.02593
238.304	60.66735
238.524	108.71418
238.744	90.08391
238.964	160.21143
239.184	139.89858
239.404	161.08816
239.624	79.10656
239.843	139.29529
240.063	76.36969
240.283	51.48143
240.503	55.92449
240.723	55.91638
240.943	31.35292
241.163	42.53724
241.383	29.11629
241.603	16.48423
241.822	19.05486
242.042	12.8887
242.262	17.352
242.482	19.76258
242.702	20.36528
242.921	6.88887
243.141	13.75744
243.361	13.41832
243.581	18.49876
243.8	15.34367
244.02	10.12848
244.24	17.27985
244.459	16.61501
244.679	34.58385
244.899	22.05196
245.118	26.02369
245.338	24.51049
245.558	28.01728
245.777	15.73111
245.997	21.30256
246.216	20.67134
246.436	12.27794
246.655	8.81649
246.875	6.73044
247.094	12.47098
247.314	4.73891
247.533	7.39436
247.753	8.23503
247.972	6.73055
248.192	2.47929
248.411	3.77904
248.631	6.62269
248.85	7.93961
249.07	7.81296
249.289	11.46377
249.508	8.08289
249.728	13.34501
249.947	12.95194
250.166	17.21126
250.386	8.72682
250.605	13.13359
250.824	22.12598
251.044	14.57448
251.263	46.9132
251.482	27.78985
251.701	24.34293
251.921	0.23465
252.14	7.38996
252.359	8.53002
252.578	19.93865
252.798	7.16228
253.017	16.52768
253.236	8.51526
253.455	10.67961
253.674	21.7338
253.893	10.70388
254.112	15.12533
254.331	22.77187
254.551	17.82462
254.77	9.47044
254.989	27.08489
255.208	19.73171
255.427	31.03982
255.646	26.76255
255.865	40.65646
256.084	17.66388
256.303	22.13593
256.522	27.39081
256.741	6.50456
256.96	7.48624
257.179	18.22687
257.397	21.49811
257.616	12.00781
257.835	12.31505
258.054	29.07371
258.273	20.41118
258.492	19.83082
258.711	13.0283
258.93	5.66956
259.148	9.41049
259.367	8.73962
259.586	10.85679
259.805	4.91376
260.023	9.25791
260.242	6.67294
260.461	5.18167
260.68	2.55595
260.898	7.62321
261.117	2.5921
261.336	1.76622
261.554	6.36948
261.773	6.33381
261.992	1.79918
262.21	6.36225
262.429	7.35148
262.648	12.30759
262.866	14.71111
263.085	10.95017
263.303	8.8903
263.522	16.48392
263.74	15.84183
263.959	28.41698
264.178	14.77094
264.396	12.951
264.615	9.14767
264.833	20.40794
265.051	18.45186
265.27	20.37439
265.488	20.18811
265.707	12.27428
265.925	20.37225
266.144	9.89807
266.362	10.93515
266.58	11.79363
266.799	9.54124
267.017	11.38353
267.235	9.75316
267.454	6.94616
267.672	3.66361
267.89	8.37451
268.109	9.01588
268.327	8.51338
268.545	1.94892
268.763	7.53594
268.982	3.29405
269.2	8.47383
269.418	6.00821
269.636	4.51238
269.854	8.33653
270.073	6.03973
270.291	3.88363
270.509	3.84829
270.727	8.40067
270.945	13.93031
271.163	13.75636
271.381	3.43158
271.599	5.61607
271.817	9.65663
272.036	3.12862
272.254	6.72147
272.472	4.54413
272.69	4.69991
272.908	4.63055
273.126	7.5963
273.344	9.71635
273.562	3.534
273.779	4.99381
273.997	7.92648
274.215	7.41877
274.433	5.37444
274.651	8.51435
274.869	7.98289
275.087	5.30743
275.305	7.67176
275.523	4.9711
275.74	5.54527
275.958	10.44349
276.176	14.88167
276.394	4.74624
276.612	6.21562
276.829	6.20119
277.047	5.40983
277.265	5.61473
277.483	6.58033
277.7	7.41417
277.918	6.5407
278.136	11.24163
278.353	5.45394
278.571	3.51689
278.789	8.79854
279.006	1.78576
279.224	5.48903
279.442	9.25158
279.659	6.89435
279.877	4.51231
280.094	9.9265
280.312	2.07603
280.529	6.35535
280.747	2.3257
280.964	5.71874
281.182	10.41064
281.399	5.46458
281.617	6.89195
281.834	4.97491
282.052	3.6428
282.269	6.04744
282.487	4.77882
282.704	4.13785
282.921	3.85832
283.139	6.17372
283.356	8.08482
283.574	7.39863
283.791	3.66531
284.008	9.5368
284.226	5.76632
284.443	6.02564
284.66	8.07162
284.877	7.04772
285.095	4.17925
285.312	3.1461
285.529	1.93636
285.746	1.80829
285.964	3.9957
286.181	2.75882
286.398	3.71417
286.615	5.10748
286.832	4.93542
287.05	1.32802
287.267	3.48508
287.484	3.66244
287.701	5.07486
287.918	4.54704
288.135	4.75017
288.352	2.26907
288.569	2.87127
288.786	4.57101
289.003	3.61665
289.22	5.71303
289.437	3.25393
289.654	5.54826
289.871	5.58066
290.088	5.32062
290.305	4.29227
290.522	3.60225
290.739	3.70982
290.956	5.77973
291.173	6.65427
291.39	6.25204
291.607	4.27434
291.824	3.68527
292.04	2.38101
292.257	5.46518
292.474	5.90916
292.691	3.92227
292.908	1.86562
293.125	3.34923
293.341	1.98286
293.558	9.11492
293.775	4.14289
293.992	4.17168
294.208	1.68806
294.425	2.80457
294.642	3.7203
294.858	5.90541
295.075	1.33234
295.292	3.79221
295.508	4.64673
295.725	6.63917
295.942	3.36795
296.158	2.44099
296.375	3.86728
296.591	3.14629
296.808	3.16886
297.024	3.84735
297.241	4.13978
297.458	4.27634
297.674	0.52228
297.891	3.43951
298.107	2.63731
298.323	2.04781
298.54	4.79192
298.756	2.36846
298.973	1.22227
299.189	5.04851
299.406	2.34653
299.622	5.11121
299.838	5.26004
300.055	4.73272
300.271	1.21057
300.487	2.09182
300.704	2.39225
300.92	1.2672
301.136	7.14438
301.353	5.30562
301.569	3.80273
301.785	4.09929
302.001	4.8383
302.218	4.18545
302.434	4.63392
302.65	1.52769
302.866	2.79842
303.083	7.2815
303.299	7.25399
303.515	3.74
303.731	4.00087
303.947	1.38639
304.163	2.61559
304.379	3.84332
304.595	4.49949
304.812	2.73972
305.028	2.30741
305.244	3.168
305.46	4.84947
305.676	4.93547
305.892	6.04064
306.108	4.45302
306.324	3.16787
306.54	6.77827
306.756	4.88185
306.972	4.37905
307.187	3.33244
307.403	6.33698
307.619	2.84514
307.835	5.79702
308.051	5.88738
308.267	2.02445
308.483	5.58537
308.699	4.55316
308.914	3.67407
309.13	3.85404
309.346	1.1616
309.562	2.08339
309.778	1.2047
309.993	4.66811
310.209	3.46245
310.425	1.82337
310.641	3.14089
310.856	1.92549
311.072	1.93636
311.288	3.33591
311.503	3.71947
311.719	0.88238
311.935	0.69382
312.15	4.08569
312.366	3.54904
312.581	4.28997
312.797	3.16083
313.013	4.67599
313.228	2.51077
313.444	3.42358
313.659	2.12164
313.875	4.22981
314.09	3.50401
314.306	5.94067
314.521	4.95518
314.737	4.8111
314.952	4.03578
315.168	3.72019
315.383	4.49236
315.599	3.48042
315.814	3.43028
316.029	5.21538
316.245	1.66461
316.46	1.09087
316.675	5.84141
316.891	7.13806
317.106	8.67415
317.321	4.70436
317.537	4.42231
317.752	5.12222
317.967	5.1901
318.183	2.83984
318.398	3.45928
318.613	5.47117
318.828	6.05586
319.043	5.40343
319.259	3.3829
319.474	4.31839
319.689	5.80393
319.904	0.92895
320.119	5.2625
320.334	4.25526
320.549	3.43413
320.765	5.87289
320.98	4.49294
321.195	5.37539
321.41	4.01733
321.625	5.22643
321.84	7.07775
322.055	6.82936
322.27	3.29273
322.485	2.26315
322.7	4.22233
322.915	5.90287
323.13	2.56111
323.345	6.42579
323.56	4.99573
323.775	5.16963
323.989	4.84626
324.204	4.25405
324.419	5.38602
324.634	1.79329
324.849	3.66221
325.064	7.17596
325.279	5.60958
325.493	4.8144
325.708	5.66046
325.923	2.63552
326.138	2.90528
326.352	6.83269
326.567	5.27988
326.782	3.51968
326.997	2.75293
327.211	4.94194
327.426	4.70422
327.641	3.54461
327.855	1.41463
328.07	4.95383
328.285	6.97182
328.499	3.67382
328.714	4.41885
328.928	5.31414
329.143	4.1233
329.358	5.97976
329.572	5.66761
329.787	6.26635
330.001	8.63535
330.216	2.00863
330.43	6.94404
330.645	6.97374
330.859	5.41269
331.074	2.71458
331.288	4.06913
331.503	7.0474
331.717	2.17765
331.931	4.12746
332.146	4.41518
332.36	7.71407
332.575	4.99546
332.789	4.6103
333.003	4.00567
333.218	5.02904
333.432	3.10339
333.646	5.44705
333.86	7.09258
334.075	7.21894
334.289	3.34296
334.503	2.50567
334.717	4.97668
334.932	4.7897
335.146	5.62509
335.36	3.12618
335.574	5.05424
335.788	4.65424
336.003	5.37755
336.217	5.26735
336.431	4.73199
336.645	3.5116
336.859	2.33508
337.073	4.01836
337.287	4.71624
337.501	2.7417
337.715	5.07389
337.929	5.48903
338.143	2.29379
338.357	4.2642
338.571	2.9238
338.785	5.10895
338.999	3.21081
339.213	3.21063
339.427	2.0198
339.641	6.08189
339.855	3.47904
340.069	2.87246
340.283	5.64581
340.497	6.75754
340.711	4.77838
340.924	3.79067
341.138	2.38523
341.352	1.97207
341.566	4.25579
341.78	1.20683
341.993	3.16865
342.207	2.5858
342.421	4.31438
342.635	3.73837
342.848	3.17972
343.062	0.55991
343.276	2.80763
343.49	7.4323
343.703	3.10668
343.917	5.38221
344.131	5.49321
344.344	2.78626
344.558	3.26934
344.771	2.39582
344.985	5.66494
345.199	6.44624
345.412	4.38006
345.626	4.49858
345.839	1.16671
346.053	2.23658
346.266	2.21448
346.48	4.7148
346.693	4.19894
346.907	4.56049
347.12	2.37888
347.334	4.04396
347.547	4.45363
347.76	3.5189
347.974	5.53542
348.187	4.33763
348.401	3.47566
348.614	2.68176
348.827	3.57855
349.041	4.74577
349.254	1.23264
349.467	3.74452
349.681	2.18612
349.894	2.95107
350.107	5.5331
350.32	6.83942
350.534	1.61763
350.747	3.40888
350.96	2.4121
351.173	2.71625
351.386	3.09501
351.6	3.02587
351.813	2.88521
352.026	3.57635
352.239	1.86511
352.452	3.30353
352.665	5.25874
352.878	3.35257
353.092	7.09904
353.305	4.94305
353.518	3.89265
353.731	2.42714
353.944	5.39387
354.157	3.07305
354.37	2.48256
354.583	2.21825
354.796	1.32629
355.009	5.31615
355.222	3.70535
355.435	3.60842
355.647	5.13117
355.86	2.08613
356.073	3.46693
356.286	2.8733
356.499	4.78482
356.712	4.37606
356.925	4.06644
357.138	5.21866
357.35	2.12702
357.563	2.97975
357.776	3.63727
357.989	3.15289
358.201	4.24248
358.414	3.71408
358.627	5.0412
358.84	3.19032
359.052	1.8609
359.265	1.85353
359.478	4.82797
359.69	-0.12591
359.903	4.57489
360.116	4.71128
360.328	1.05079
360.541	4.5005
360.753	2.06414
360.966	2.70448
361.179	2.69578
361.391	2.56488
361.604	1.83669
361.816	2.59242
362.029	2.30482
362.241	1.89422
362.454	2.40404
362.666	1.89988
362.879	3.20456
363.091	2.62111
363.304	2.04325
363.516	2.89543
363.728	1.52256
363.941	3.95136
364.153	2.51104
364.366	0.27457
364.578	1.78603
364.79	3.6982
365.003	3.04586
365.215	2.66248
365.427	3.9391
365.639	4.83296
365.852	3.53361
366.064	5.58664
366.276	2.5911
366.488	3.82937
366.701	2.68746
366.913	2.89012
367.125	3.15801
367.337	2.29925
367.549	2.57402
367.762	3.27954
367.974	3.15556
368.186	2.3997
368.398	4.54958
368.61	4.15521
368.822	4.23409
369.034	3.14369
369.246	4.09944
369.458	6.53665
369.67	2.01154
369.882	5.89687
370.094	0.62897
370.306	5.67044
370.518	2.84237
370.73	2.46055
370.942	2.29032
371.154	3.1336
371.366	2.5817
371.578	3.6937
371.79	2.29168
372.002	4.8786
372.214	5.598
372.425	3.56901
372.637	5.18587
372.849	3.67389
373.061	0.323
373.273	4.10902
373.484	3.89102
373.696	4.5135
373.908	0.27354
374.12	4.98562
374.331	3.85709
374.543	2.39415
374.755	1.99327
374.967	3.49425
375.178	4.54445
375.39	2.96858
375.602	3.36454
375.813	1.54091
376.025	1.53294
376.236	3.29329
376.448	3.50019
376.66	2.77565
376.871	2.68307
377.083	4.48691
377.294	4.73518
377.506	2.68111
377.717	4.99179
377.929	3.55774
378.14	2.28291
378.352	4.02808
378.563	3.87256
378.775	4.96608
378.986	2.30341
379.197	3.54077
379.409	2.62883
379.62	4.49397
379.832	3.50607
380.043	3.17009
380.254	3.71724
380.466	1.73749
380.677	6.99713
380.888	6.36896
381.1	6.91474
381.311	6.68937
381.522	3.38666
381.733	7.51414
381.945	3.06509
382.156	3.55054
382.367	2.78471
382.578	7.09541
382.789	7.12055
383.001	2.8405
383.212	5.59559
383.423	5.66506
383.634	4.89027
383.845	4.22079
384.056	3.02
384.267	3.54553
384.478	3.38199
384.69	2.04949
384.901	4.33358
385.112	4.16024
385.323	5.75097
385.534	4.11198
385.745	3.96315
385.956	4.25475
386.167	2.34043
386.378	4.46956
386.588	2.21753
386.799	2.70758
387.01	1.55291
387.221	4.80715
387.432	3.57444
387.643	6.13527
387.854	3.34755
388.065	3.23962
388.275	3.47722
388.486	3.1617
388.697	3.5787
388.908	3.14771
389.119	5.21826
389.329	6.01201
389.54	3.91163
389.751	4.19106
389.962	5.52539
390.172	4.1628
390.383	3.27437
390.594	3.04813
390.804	2.96053
391.015	3.10382
391.226	3.89645
391.436	4.5878
391.647	4.18397
391.858	4.64892
392.068	1.90071
392.279	2.37641
392.489	4.06503
392.7	5.13933
392.91	2.51757
393.121	2.99481
393.331	4.46579
393.542	5.34255
393.752	4.81558
393.963	4.26699
394.173	4.00769
394.384	4.7402
394.594	3.84496
394.804	2.49774
395.015	4.21656
395.225	4.7802
395.436	2.51293
395.646	4.61965
395.856	3.234
396.067	2.40343
396.277	5.30515
396.487	4.72138
396.697	4.45148
396.908	5.10978
397.118	5.12913
397.328	4.49095
397.538	5.51564
397.749	3.3693
397.959	5.43688
398.169	5.21311
398.379	2.7749
398.589	5.35333
398.8	4.51603
399.01	4.45486
399.22	3.89914
399.43	7.17319
399.64	4.07616
399.85	5.32132
400.06	4.30859
400.27	3.66525
400.48	4.49617
400.69	6.21678
400.9	3.62968
401.11	3.45144
401.32	5.49626
401.53	4.11992
401.74	6.6039
401.95	5.59079
402.16	3.48712
402.37	5.33238
402.58	3.98155
402.79	5.55321
403	5.84477
403.209	3.99722
403.419	5.74206
403.629	4.07709
403.839	5.75052
404.049	5.81321
404.258	3.9281
404.468	3.69437
404.678	5.49814
404.888	5.79548
405.097	3.93871
405.307	4.57506
405.517	5.49504
405.727	5.0661
405.936	4.43765
406.146	5.21054
406.356	6.53307
406.565	4.77836
406.775	4.23904
406.984	4.2744
407.194	6.93523
407.404	5.17378
407.613	5.41544
407.823	5.95547
408.032	6.47405
408.242	6.36269
408.451	4.34512
408.661	4.93632
408.87	7.43453
409.08	4.40242
409.289	5.69571
409.499	5.49139
409.708	5.45476
409.918	2.87788
410.127	5.29812
410.336	7.27602
410.546	6.1255
410.755	4.97962
410.964	4.65147
411.174	4.37149
411.383	6.00169
411.592	5.80145
411.802	4.16154
412.011	6.54385
412.22	5.39415
412.429	7.26147
412.639	7.15952
412.848	7.17364
413.057	7.59839
413.266	7.1537
413.475	5.58477
413.685	6.61228
413.894	6.77736
414.103	7.22787
414.312	6.54267
414.521	5.78104
414.73	6.15891
414.939	8.11903
415.148	6.50358
415.357	6.30175
415.566	5.39213
415.776	5.48553
415.985	5.27073
416.194	6.76562
416.403	7.91845
416.611	4.45423
416.82	5.21595
417.029	6.08437
417.238	5.13912
417.447	4.99903
417.656	5.40944
417.865	5.2217
418.074	5.5383
418.283	5.83492
418.492	6.89744
418.7	6.62042
418.909	7.68708
419.118	6.04908
419.327	6.43554
419.536	6.15859
419.744	5.46941
419.953	7.07851
420.162	6.97737
420.371	5.44663
420.579	5.27193
420.788	6.55111
420.997	6.59196
421.205	6.46059
421.414	6.22813
421.623	6.24274
421.831	5.58646
422.04	6.66904
422.249	5.57776
422.457	6.32361
422.666	5.74212
422.874	6.98766
423.083	7.11296
423.291	6.88382
423.5	6.5557
423.708	6.61873
423.917	7.22206
424.125	6.5307
424.334	6.20878
424.542	8.38626
424.751	7.34107
424.959	7.13666
425.167	7.62608
425.376	7.48528
