Data from WindowProjectSample_Transmission__9__00009.txt Node

Date: Sat May 03 15:02:31 EDT 2025
User: jessi
Spectrometer: SR400872
Trigger mode: 0
Integration Time (sec): 5.000010E-1
Scans to average: 6
Electric dark correction enabled: true
Nonlinearity correction enabled: true
Boxcar width: 0
XAxis mode: Wavelengths
Number of Pixels in Spectrum: 3648
>>>>>Begin Spectral Data<<<<<
184.909	18396.12933
185.132	2565.245
185.355	23066.38657
185.578	-8099.38357
185.801	359.47459
186.024	-1453.44479
186.247	705.81243
186.47	1978.52531
186.693	-110.1392
186.916	-1849.697
187.139	-2650.34531
187.362	1639.05484
187.585	2864.07966
187.808	-3405.8621
188.031	-1131.59534
188.254	-1189.05607
188.476	-843.41676
188.699	2470.14308
188.922	-794.41359
189.145	-9859.75413
189.368	-442.51031
189.591	-1064.76611
189.813	-1834.12076
190.036	1221.32668
190.259	1892.17821
190.482	658.52923
190.705	11158.70095
190.927	-1077.27556
191.15	3600.37291
191.373	2426.60262
191.595	-2255.26023
191.818	2483.94606
192.041	-261.22629
192.263	2638.37958
192.486	1850.37209
192.709	-5584.69489
192.931	2655.38159
193.154	-6218.83746
193.377	189550.98729
193.599	1449.08359
193.822	1792.25922
194.044	-2181.88318
194.267	479.48353
194.489	-199.52343
194.712	1475.92977
194.934	3415.61188
195.157	-10790.89431
195.379	819.52376
195.602	2279.8028
195.824	2126.73668
196.047	2525.08259
196.269	3120.81354
196.492	3404.45881
196.714	2783.62709
196.936	1219.1045
197.159	1358.6333
197.381	-2672.53578
197.604	-1066.52049
197.826	6626.2124
198.048	2926.21209
198.271	4251.95716
198.493	2204.55782
198.715	-5950.56929
198.938	-463.12986
199.16	1870.1901
199.382	1462.47134
199.604	-651.66418
199.827	9167.11083
200.049	914.74482
200.271	-3047.755
200.493	-50646.01108
200.715	2231.66212
200.938	6864.80633
201.16	-7089.59636
201.382	-3034.44454
201.604	-2038.80875
201.826	6794.23775
202.048	912.14195
202.27	-17118.55378
202.492	4846.44856
202.715	-1080.04237
202.937	4466.06785
203.159	-2184.61811
203.381	991.56292
203.603	-3972.40612
203.825	-3026.93845
204.047	3372.38743
204.269	-2260.68049
204.491	2041.30487
204.713	1898.99417
204.935	15399.0321
205.156	1793.94653
205.378	-7909.76111
205.6	-4097.63367
205.822	8902.48399
206.044	-821.52671
206.266	4008.91185
206.488	982.60345
206.71	27120.65853
206.932	2290.8531
207.153	-4764.56827
207.375	-1971.15547
207.597	8680.60375
207.819	4260.74011
208.041	2391.45248
208.262	-2675.68021
208.484	-1064.84547
208.706	-2679.23907
208.927	28590.79643
209.149	941.51154
209.371	-6719.42291
209.593	1390.46119
209.814	4635.55872
210.036	-3075.31042
210.258	-5605.00091
210.479	-1193.9141
210.701	1012.47217
210.922	7080.5104
211.144	-1064.06733
211.366	-6500.5176
211.587	-594.80932
211.809	10052.89232
212.03	-1289.70526
212.252	-1821.82631
212.473	809.59143
212.695	-2476.23628
212.916	2710.12463
213.138	2804.14543
213.359	-1770.39025
213.581	5800.69294
213.802	-1693.23115
214.024	18019.59562
214.245	-3117.45206
214.466	-643.96302
214.688	1679.9565
214.909	993.93416
215.131	-93462.49237
215.352	1671.65083
215.573	2486.3797
215.795	2899.02111
216.016	4174.28245
216.237	-565.34725
216.459	6895.60161
216.68	103983.6799
216.901	-83050.91699
217.122	1820.47801
217.344	5895.27145
217.565	-57867.74283
217.786	1535.30828
218.007	1410.88715
218.228	-1100.39177
218.45	-1298.26035
218.671	-1168.47589
218.892	1186.09167
219.113	-18918.48171
219.334	-352.04699
219.555	-5148.56651
219.776	1650.35409
219.997	3309.04681
220.219	1073.53461
220.44	2454.1219
220.661	-3417.74048
220.882	3669.42221
221.103	-1245.08246
221.324	909.95025
221.545	2330.83438
221.766	-5863.74368
221.987	3679.00435
222.208	-1647.56682
222.429	3485.64812
222.65	-163.15785
222.87	-661.4676
223.091	7931.28987
223.312	2373.70877
223.533	6501.10144
223.754	1803.18419
223.975	1448.62189
224.196	-10880.64124
224.417	1068.61684
224.637	938.80511
224.858	-228.76567
225.079	6750.83054
225.3	613.10041
225.521	2101.70424
225.741	1420.66682
225.962	748.3663
226.183	228.75388
226.404	660.9379
226.624	595.66297
226.845	355.75319
227.066	390.11523
227.286	204.04263
227.507	90.03323
227.728	78.06456
227.948	125.39809
228.169	38.84514
228.389	47.38446
228.61	23.79595
228.831	34.9642
229.051	2.71795
229.272	21.70901
229.492	30.81827
229.713	10.3997
229.933	23.16494
230.154	19.54736
230.374	31.72324
230.595	23.95283
230.815	14.33465
231.036	23.78938
231.256	-5.74045
231.477	42.38721
231.697	23.95704
231.917	22.65528
232.138	37.6871
232.358	78.58128
232.579	64.44622
232.799	13.34397
233.019	65.30373
233.24	77.30681
233.46	26.49043
233.68	42.57401
233.901	34.64185
234.121	20.23114
234.341	5.78516
234.561	-0.9632
234.782	15.62325
235.002	44.67816
235.222	-0.03061
235.442	39.69834
235.662	20.37218
235.883	41.73982
236.103	38.75916
236.323	25.39335
236.543	19.33273
236.763	26.99641
236.983	27.50152
237.203	28.40252
237.423	41.13456
237.643	61.13208
237.864	51.98599
238.084	13.4512
238.304	22.81086
238.524	33.89426
238.744	26.60648
238.964	47.96959
239.184	45.46005
239.404	44.98447
239.624	24.90909
239.843	41.57326
240.063	23.24526
240.283	15.94996
240.503	17.31236
240.723	15.83907
240.943	8.79753
241.163	14.03087
241.383	11.35619
241.603	5.1405
241.822	6.20878
242.042	4.6557
242.262	6.01074
242.482	6.58585
242.702	8.60323
242.921	2.18341
243.141	5.86957
243.361	4.60403
243.581	7.95917
243.8	5.97123
244.02	4.20764
244.24	7.56716
244.459	7.0101
244.679	14.25568
244.899	8.80068
245.118	10.44674
245.338	7.90815
245.558	11.08127
245.777	6.28894
245.997	7.0584
246.216	7.32077
246.436	4.12899
246.655	3.43231
246.875	2.40078
247.094	4.92063
247.314	1.68369
247.533	2.71908
247.753	3.27709
247.972	2.69009
248.192	1.10528
248.411	1.77852
248.631	3.20675
248.85	4.00195
249.07	2.73696
249.289	5.21367
249.508	3.82991
249.728	6.24781
249.947	6.32112
250.166	6.71964
250.386	3.95552
250.605	5.69149
250.824	7.94218
251.044	6.11263
251.263	20.15509
251.482	10.43412
251.701	9.71922
251.921	0.19572
252.14	2.91483
252.359	3.11283
252.578	7.98897
252.798	2.52125
253.017	8.0912
253.236	3.74631
253.455	5.21544
253.674	9.73872
253.893	4.42403
254.112	6.32909
254.331	9.57824
254.551	7.35234
254.77	3.71423
254.989	11.74018
255.208	9.90402
255.427	12.49388
255.646	10.92381
255.865	17.77197
256.084	7.01965
256.303	7.68051
256.522	12.05191
256.741	2.4319
256.96	3.37309
257.179	8.33809
257.397	8.66521
257.616	4.6367
257.835	4.8626
258.054	11.86477
258.273	7.51866
258.492	8.57369
258.711	5.53844
258.93	2.40802
259.148	3.10291
259.367	3.35729
259.586	4.13548
259.805	1.92364
260.023	4.11275
260.242	3.33053
260.461	2.25471
260.68	1.15457
260.898	3.82409
261.117	1.45553
261.336	0.91654
261.554	3.24699
261.773	3.03476
261.992	0.49802
262.21	3.14935
262.429	3.62366
262.648	6.28855
262.866	7.22843
263.085	4.63507
263.303	4.1566
263.522	7.28518
263.74	7.9121
263.959	12.71421
264.178	6.74236
264.396	5.83402
264.615	3.67482
264.833	10.10747
265.051	8.84161
265.27	8.39852
265.488	9.15807
265.707	6.2509
265.925	9.0364
266.144	4.27256
266.362	5.41212
266.58	5.40352
266.799	4.3807
267.017	5.08035
267.235	4.22332
267.454	2.69026
267.672	1.98614
267.89	3.54339
268.109	3.76216
268.327	4.06291
268.545	0.77579
268.763	3.85003
268.982	1.3898
269.2	4.25726
269.418	2.46541
269.636	1.91497
269.854	3.50647
270.073	2.80765
270.291	1.41303
270.509	1.60476
270.727	3.58964
270.945	6.18069
271.163	6.11817
271.381	1.61722
271.599	2.62169
271.817	4.36556
272.036	1.51061
272.254	2.59953
272.472	2.1897
272.69	1.96474
272.908	2.0817
273.126	3.84457
273.344	4.44827
273.562	1.61035
273.779	2.45287
273.997	3.27759
274.215	3.95294
274.433	2.72404
274.651	4.0694
274.869	4.26486
275.087	2.45971
275.305	3.94581
275.523	2.04394
275.74	2.89978
275.958	4.59377
276.176	6.8632
276.394	2.23432
276.612	2.60079
276.829	2.82101
277.047	2.06334
277.265	2.63484
277.483	3.32739
277.7	3.74261
277.918	3.23411
278.136	5.49827
278.353	2.71487
278.571	1.5823
278.789	4.17303
279.006	0.8042
279.224	2.36513
279.442	4.51815
279.659	3.01626
279.877	2.24935
280.094	4.90219
280.312	1.06862
280.529	2.82826
280.747	0.9784
280.964	2.36321
281.182	5.16493
281.399	2.23984
281.617	3.24524
281.834	2.31647
282.052	1.82512
282.269	2.59268
282.487	2.21808
282.704	1.78005
282.921	2.0945
283.139	2.92255
283.356	3.79248
283.574	3.3282
283.791	1.60257
284.008	4.88327
284.226	2.39845
284.443	2.90142
284.66	3.33623
284.877	2.95095
285.095	1.99297
285.312	1.43769
285.529	1.05281
285.746	0.84863
285.964	1.83364
286.181	1.24625
286.398	1.87737
286.615	2.40627
286.832	2.11062
287.05	0.80928
287.267	1.59197
287.484	1.82216
287.701	2.39517
287.918	2.41196
288.135	2.46888
288.352	1.26584
288.569	1.26875
288.786	1.98233
289.003	1.81137
289.22	2.45275
289.437	1.54542
289.654	2.65978
289.871	2.8799
290.088	2.73978
290.305	2.04067
290.522	1.64701
290.739	2.0851
290.956	2.80072
291.173	3.40462
291.39	3.12444
291.607	2.17797
291.824	1.81472
292.04	1.0598
292.257	2.72533
292.474	2.90317
292.691	1.69552
292.908	0.95529
293.125	1.7335
293.341	1.17775
293.558	4.65717
293.775	1.88655
293.992	1.95663
294.208	0.73941
294.425	1.16365
294.642	1.67752
294.858	2.76311
295.075	0.70091
295.292	1.68858
295.508	2.10495
295.725	3.42793
295.942	1.53327
296.158	1.10634
296.375	1.79946
296.591	1.41928
296.808	1.56358
297.024	1.68287
297.241	1.93362
297.458	2.10046
297.674	0.17151
297.891	1.71604
298.107	1.35097
298.323	1.04811
298.54	2.4971
298.756	1.12611
298.973	0.58129
299.189	2.67916
299.406	1.17571
299.622	2.69171
299.838	2.61675
300.055	2.55225
300.271	0.67817
300.487	0.92018
300.704	1.14115
300.92	0.56709
301.136	3.61893
301.353	2.58743
301.569	1.74359
301.785	2.18732
302.001	2.50236
302.218	2.1932
302.434	2.00682
302.65	0.60499
302.866	1.577
303.083	3.47696
303.299	3.38936
303.515	1.90385
303.731	1.97062
303.947	0.74
304.163	1.11565
304.379	2.05251
304.595	2.33225
304.812	1.27885
305.028	1.10359
305.244	1.4751
305.46	2.55074
305.676	2.55897
305.892	3.14033
306.108	1.78239
306.324	1.49449
306.54	3.39147
306.756	2.4215
306.972	2.18721
307.187	1.62909
307.403	3.06439
307.619	1.1526
307.835	2.58214
308.051	3.2241
308.267	0.56202
308.483	2.62339
308.699	2.20486
308.914	1.81964
309.13	1.65855
309.346	0.54626
309.562	0.95009
309.778	0.52241
309.993	2.27066
310.209	1.77903
310.425	0.81979
310.641	1.60813
310.856	0.72479
311.072	0.85495
311.288	1.58512
311.503	1.88436
311.719	0.41905
311.935	0.25752
312.15	1.9974
312.366	1.83912
312.581	2.25005
312.797	1.83531
313.013	2.30033
313.228	1.33045
313.444	1.7873
313.659	1.29682
313.875	2.1909
314.09	1.6976
314.306	2.70582
314.521	2.5466
314.737	2.25236
314.952	2.02487
315.168	1.66806
315.383	2.3701
315.599	1.68074
315.814	1.57581
316.029	2.60205
316.245	0.58787
316.46	0.59321
316.675	3.13587
316.891	3.57656
317.106	4.16967
317.321	2.35571
317.537	2.33784
317.752	2.53398
317.967	2.62122
318.183	1.36553
318.398	1.51527
318.613	2.64906
318.828	3.09355
319.043	2.7079
319.259	1.55237
319.474	2.20187
319.689	2.92094
319.904	0.61078
320.119	2.57767
320.334	2.24504
320.549	1.68506
320.765	2.90084
320.98	2.19341
321.195	2.91297
321.41	1.59576
321.625	2.5076
321.84	3.37205
322.055	3.59192
322.27	1.4344
322.485	0.88177
322.7	2.02587
322.915	3.01022
323.13	1.20671
323.345	3.364
323.56	2.78079
323.775	2.50931
323.989	2.34358
324.204	2.15442
324.419	2.60311
324.634	0.7649
324.849	1.86889
325.064	4.1006
325.279	2.90564
325.493	2.43421
325.708	2.87
325.923	1.33698
326.138	1.23505
326.352	3.28576
326.567	2.72801
326.782	1.58755
326.997	1.12671
327.211	2.42763
327.426	2.47298
327.641	1.55395
327.855	0.60441
328.07	2.26234
328.285	3.43202
328.499	1.7561
328.714	2.35858
328.928	2.56545
329.143	2.14415
329.358	2.88206
329.572	2.96577
329.787	3.03168
330.001	4.26387
330.216	0.70228
330.43	3.35782
330.645	3.50244
330.859	2.72836
331.074	1.55093
331.288	2.19908
331.503	2.96992
331.717	1.13183
331.931	1.91315
332.146	1.92252
332.36	3.49974
332.575	2.44932
332.789	2.05762
333.003	1.76393
333.218	2.60073
333.432	1.7979
333.646	2.68451
333.86	3.33204
334.075	3.52244
334.289	1.3942
334.503	1.22514
334.717	2.31739
334.932	2.47791
335.146	3.09468
335.36	1.76122
335.574	2.64607
335.788	2.47124
336.003	3.03817
336.217	2.66927
336.431	2.6784
336.645	1.51295
336.859	1.04917
337.073	1.73873
337.287	2.26655
337.501	1.12811
337.715	2.24418
337.929	2.64773
338.143	1.03058
338.357	1.97103
338.571	1.2077
338.785	2.32799
338.999	1.60271
339.213	1.73073
339.427	0.94989
339.641	2.91559
339.855	1.79523
340.069	1.48347
340.283	2.81857
340.497	3.4868
340.711	2.42677
340.924	1.49005
341.138	1.20368
341.352	0.87025
341.566	2.18236
341.78	0.91048
341.993	1.46134
342.207	1.00298
342.421	2.2095
342.635	2.09849
342.848	1.40472
343.062	0.34573
343.276	1.39572
343.49	3.78783
343.703	1.48337
343.917	2.67244
344.131	2.81299
344.344	1.3084
344.558	1.5385
344.771	1.21703
344.985	3.16538
345.199	3.13379
345.412	2.1526
345.626	2.13177
345.839	0.58724
346.053	1.14281
346.266	0.99132
346.48	2.64566
346.693	2.19461
346.907	2.42303
347.12	1.15429
347.334	2.14082
347.547	2.20771
347.76	1.70588
347.974	2.80219
348.187	2.23375
348.401	1.56118
348.614	1.38292
348.827	1.58203
349.041	2.4006
349.254	0.59842
349.467	1.61128
349.681	0.75531
349.894	1.50541
350.107	3.0126
350.32	3.08761
350.534	0.57586
350.747	1.48027
350.96	1.24088
351.173	1.38551
351.386	1.61208
351.6	1.48547
351.813	1.13392
352.026	1.85889
352.239	0.78975
352.452	1.64747
352.665	2.31588
352.878	1.68474
353.092	3.74125
353.305	2.27411
353.518	1.96031
353.731	0.98232
353.944	2.88352
354.157	1.19268
354.37	1.03381
354.583	0.85716
354.796	0.6505
355.009	2.63944
355.222	1.68095
355.435	1.851
355.647	2.63852
355.86	0.94428
356.073	1.74904
356.286	1.36326
356.499	2.33375
356.712	2.03058
356.925	2.07852
357.138	2.46351
357.35	0.89572
357.563	1.41136
357.776	1.86981
357.989	1.35298
358.201	2.18942
358.414	1.61783
358.627	2.56075
358.84	1.4701
359.052	0.86365
359.265	0.82059
359.478	2.45683
359.69	-0.35688
359.903	1.98315
360.116	2.10926
360.328	0.24654
360.541	2.26154
360.753	0.82161
360.966	1.05643
361.179	1.1457
361.391	1.15449
361.604	0.68331
361.816	1.13853
362.029	0.96486
362.241	0.90185
362.454	0.95912
362.666	0.79036
362.879	1.28039
363.091	1.24349
363.304	0.8878
363.516	1.46367
363.728	0.62329
363.941	1.9148
364.153	0.91296
364.366	0.03668
364.578	0.73787
364.79	1.74593
365.003	1.4139
365.215	1.30724
365.427	1.91045
365.639	2.43484
365.852	1.74916
366.064	3.18215
366.276	1.01632
366.488	1.85054
366.701	1.08468
366.913	1.27542
367.125	1.46031
367.337	0.93461
367.549	1.04174
367.762	1.36975
367.974	1.60071
368.186	0.92123
368.398	2.41949
368.61	1.97741
368.822	1.89722
369.034	1.57413
369.246	2.1057
369.458	3.3321
369.67	0.90708
369.882	2.89993
370.094	0.0818
370.306	2.74973
370.518	1.39234
370.73	0.68157
370.942	0.93625
371.154	1.23596
371.366	0.91403
371.578	1.74944
371.79	0.63786
372.002	2.41276
372.214	2.75053
372.425	1.58356
372.637	2.32162
372.849	1.33198
373.061	-0.00115
373.273	1.86472
373.484	1.91931
373.696	2.05865
373.908	-0.00865
374.12	2.24087
374.331	1.90332
374.543	0.7219
374.755	0.73183
374.967	1.54832
375.178	2.06846
375.39	1.41451
375.602	1.54475
375.813	0.73518
376.025	0.5183
376.236	1.39291
376.448	1.50589
376.66	1.04623
376.871	1.07469
377.083	2.08549
377.294	2.22365
377.506	1.08105
377.717	2.26416
377.929	1.50489
378.14	0.7324
378.352	1.74041
378.563	1.70148
378.775	2.30145
378.986	1.02368
379.197	1.43344
379.409	1.2021
379.62	1.99816
379.832	1.7273
380.043	1.16217
380.254	1.48332
380.466	0.57603
380.677	3.4938
380.888	3.05412
381.1	3.23064
381.311	3.06469
381.522	1.41712
381.733	3.51601
381.945	1.24465
382.156	1.58353
382.367	1.22173
382.578	3.64799
382.789	3.27816
383.001	1.17398
383.212	2.39494
383.423	2.43462
383.634	2.19328
383.845	1.58806
384.056	1.14467
384.267	1.34676
384.478	1.21778
384.69	0.61461
384.901	1.75891
385.112	1.66684
385.323	2.42711
385.534	1.73747
385.745	1.66602
385.956	1.76736
386.167	0.74024
386.378	1.76746
386.588	0.5609
386.799	0.96343
387.01	0.2618
387.221	1.99059
387.432	1.33736
387.643	2.77176
387.854	1.33223
388.065	1.15383
388.275	1.17858
388.486	1.32171
388.697	1.31532
388.908	1.28281
389.119	2.14813
389.329	2.60941
389.54	1.43059
389.751	1.74952
389.962	2.363
390.172	1.51576
390.383	1.18197
390.594	1.0249
390.804	0.85658
391.015	0.99564
391.226	1.45425
391.436	1.86781
391.647	1.6779
391.858	1.69398
392.068	0.31342
392.279	0.46157
392.489	1.35219
392.7	2.09623
392.91	0.71388
393.121	0.93001
393.331	1.87587
393.542	2.24583
393.752	1.73524
393.963	1.44573
394.173	1.43501
394.384	1.79079
394.594	1.3272
394.804	0.65247
395.015	1.35303
395.225	1.7701
395.436	0.77579
395.646	1.86924
395.856	0.89352
396.067	0.58435
396.277	2.20137
396.487	1.56428
396.697	1.37347
396.908	2.12357
397.118	1.95613
397.328	1.70313
397.538	2.12059
397.749	1.01213
397.959	2.20365
398.169	2.1458
398.379	0.6769
398.589	1.87751
398.8	1.68827
399.01	1.33034
399.22	1.39797
399.43	2.96265
399.64	1.0929
399.85	1.9569
400.06	1.43601
400.27	1.17137
400.48	1.53889
400.69	2.60022
400.9	1.14503
401.11	1.11755
401.32	2.13378
401.53	1.18224
401.74	2.65978
401.95	2.18518
402.16	0.76705
402.37	1.70685
402.58	1.04366
402.79	2.06374
403	1.99662
403.209	1.38545
403.419	2.29614
403.629	1.17222
403.839	2.05576
404.049	2.07038
404.258	1.00418
404.468	0.95072
404.678	1.98075
404.888	2.02081
405.097	0.95864
405.307	1.57865
405.517	1.92214
405.727	1.78558
405.936	1.28635
406.146	1.79086
406.356	2.43394
406.565	1.59774
406.775	1.04847
406.984	1.14239
407.194	2.83096
407.404	1.7542
407.613	1.86739
407.823	2.30603
408.032	2.44914
408.242	2.29616
408.451	1.35929
408.661	1.45766
408.87	2.89488
409.08	1.30171
409.289	1.97592
409.499	1.71933
409.708	1.78715
409.918	0.47321
410.127	1.68266
410.336	2.69374
410.546	2.16214
410.755	1.34326
410.964	1.38123
411.174	1.03146
411.383	2.09033
411.592	1.94129
411.802	0.97244
412.011	2.39792
412.22	1.72188
412.429	2.78894
412.639	2.59855
412.848	2.66947
413.057	2.84476
413.266	2.34321
413.475	1.72734
413.685	2.26428
413.894	2.27561
414.103	2.61675
414.312	2.19531
414.521	1.83212
414.73	1.94188
414.939	3.18832
415.148	2.17189
415.357	2.00159
415.566	1.57316
415.776	1.72857
415.985	1.42893
416.194	2.17239
416.403	2.8301
416.611	0.94823
416.82	1.35878
417.029	1.81507
417.238	1.22089
417.447	1.18906
417.656	1.40994
417.865	1.21214
418.074	1.38815
418.283	1.69636
418.492	2.35595
418.7	2.24414
418.909	3.0354
419.118	2.01587
419.327	2.41934
419.536	2.075
419.744	1.74276
419.953	2.81879
420.162	2.87673
420.371	1.67818
420.579	1.83554
420.788	2.77812
420.997	2.81702
421.205	2.74404
421.414	2.51512
421.623	2.43597
421.831	2.08675
422.04	2.82713
422.249	2.08801
422.457	2.70616
422.666	2.02186
422.874	3.04337
423.083	3.00537
423.291	2.85176
423.5	2.53274
423.708	2.83172
423.917	3.26201
424.125	2.5755
424.334	2.33298
424.542	4.09446
424.751	3.49224
424.959	3.18686
425.167	3.52981
425.376	3.31806
425.584	2.57883
425.793	2.78859
426.001	1.9215
426.209	2.85182
426.418	1.93823
426.626	1.93554
426.834	1.60209
427.042	1.94702
427.251	1.61478
427.459	2.45572
427.667	2.03562
