Data from WindowProjectSample3_Transmission__27__00027.txt Node

Date: Sun May 04 10:27:00 EDT 2025
User: jessi
Spectrometer: SR400872
Trigger mode: 0
Integration Time (sec): 5.000050E-1
Scans to average: 20
Electric dark correction enabled: true
Nonlinearity correction enabled: true
Boxcar width: 0
XAxis mode: Wavelengths
Number of Pixels in Spectrum: 3648
>>>>>Begin Spectral Data<<<<<
184.909	-1606.57898
185.132	-1263.52503
185.355	-1282.10877
185.578	-1075.57931
185.801	-3353.09577
186.024	-1035.81944
186.247	-1493.37394
186.47	-2736.99551
186.693	-272.39854
186.916	-273.79338
187.139	-981.2491
187.362	-1834.88928
187.585	-971.01234
187.808	-830.54148
188.031	-257010.65464
188.254	-1421.04221
188.476	-938.04107
188.699	-1078.45231
188.922	581.60426
189.145	-1229.48088
189.368	-1047.59287
189.591	-3811.77003
189.813	-697.0604
190.036	-1405.54694
190.259	-3194.26609
190.482	-1544.3955
190.705	-1721.72771
190.927	-991.8794
191.15	-1642.76304
191.373	-2182.9999
191.595	-2640.56876
191.818	-1233.77394
192.041	-16117.0356
192.263	-1527.77507
192.486	-418.04301
192.709	-1704.98344
192.931	-4370.1782
193.154	-1195.54592
193.377	-1185.14778
193.599	12447.55746
193.822	-817.53814
194.044	-3751.45373
194.267	-4881.49953
194.489	-180.83759
194.712	-1842.37742
194.934	-1648.85658
195.157	-953.72939
195.379	-749.62936
195.602	-860.48444
195.824	-1007.78331
196.047	-912.1365
196.269	-1053.3546
196.492	-1114.98695
196.714	-1079.38797
196.936	-1549.24497
197.159	-912.62451
197.381	-879.31988
197.604	-1308.55468
197.826	-1950.40128
198.048	-1575.8479
198.271	-1238.64397
198.493	-1025.25797
198.715	-919.95717
198.938	-6001.22222
199.16	-1232.96004
199.382	-915.90802
199.604	-9817.44925
199.827	-1632.90074
200.049	-1013.24005
200.271	-936.77708
200.493	-2166.16297
200.715	-934.51629
200.938	-778.11821
201.16	-1274.34003
201.382	-2689.79614
201.604	-1331.6732
201.826	-1313.82301
202.048	-534.34608
202.27	-875.15799
202.492	-1896.07877
202.715	-2025.15527
202.937	-2310.14701
203.159	-1129.81062
203.381	-1680.74218
203.603	-1301.76453
203.825	4328.74462
204.047	-1136.2149
204.269	-3208.87992
204.491	-1529.262
204.713	-783.58943
204.935	-1262.49862
205.156	-1350.98361
205.378	-3756.75409
205.6	-907.01579
205.822	-1107.41684
206.044	2752.14642
206.266	-1267.92472
206.488	-778.63974
206.71	-1828.30039
206.932	-2481.91785
207.153	-1206.08672
207.375	-928.00601
207.597	-1102.1166
207.819	-880.62568
208.041	-1303.312
208.262	-961.80835
208.484	-1915.88614
208.706	-871.87199
208.927	-840.02699
209.149	-2364.11289
209.371	-808.67748
209.593	-708.85001
209.814	-639.16411
210.036	-764.90137
210.258	-586.00957
210.479	-1477.85436
210.701	12541.50843
210.922	-862.62795
211.144	-904.29747
211.366	-1920.67341
211.587	10686.24229
211.809	-1002.26822
212.03	-3214.44878
212.252	1817.02228
212.473	-1154.71536
212.695	-4188.19659
212.916	-3203.98963
213.138	-5570.81009
213.359	-964.59727
213.581	-1590.82919
213.802	-1031.48042
214.024	-1323.68548
214.245	-11033.54916
214.466	-572.4547
214.688	-1288.25796
214.909	-1630.55706
215.131	-2005.43859
215.352	-964.09611
215.573	-1239.11379
215.795	-3139.51522
216.016	-1114.75697
216.237	-4529.1891
216.459	-13849.72459
216.68	-1659.29647
216.901	-1395.14142
217.122	-3303.06743
217.344	-1214.2295
217.565	-1527.79383
217.786	-1467.02002
218.007	-1232.711
218.228	-4997.78404
218.45	-1148.16832
218.671	-1437.16835
218.892	-1706.88803
219.113	-2372.4555
219.334	-90.29333
219.555	-1305.90739
219.776	-875.70929
219.997	-1341.13118
220.219	-2838.74693
220.44	-1021.91152
220.661	-874.43926
220.882	-997.6454
221.103	-3139.43231
221.324	5983.89121
221.545	-1913.84558
221.766	-1289.42231
221.987	-2328.8005
222.208	-2937.77065
222.429	-926.77479
222.65	-1321.11239
222.87	5112.18866
223.091	-8601.71634
223.312	4281.89263
223.533	-1665.21816
223.754	-1673.81396
223.975	-2403.9158
224.196	150593.16181
224.417	-10337.71428
224.637	2123.22861
224.858	252.52069
225.079	-7436.44115
225.3	2570.59669
225.521	-864.76766
225.741	8492.77573
225.962	6753.91953
226.183	312.14079
226.404	9119.09052
226.624	1720.84145
226.845	7719.54081
227.066	1769.53646
227.286	732.46239
227.507	248.67337
227.728	281.31343
227.948	500.13942
228.169	150.70446
228.389	154.60333
228.61	79.68528
228.831	116.1009
229.051	10.14105
229.272	69.90346
229.492	104.87846
229.713	28.81125
229.933	68.36635
230.154	64.32258
230.374	107.6395
230.595	73.42172
230.815	45.15879
231.036	81.09099
231.256	-9.85767
231.477	141.31862
231.697	78.57072
231.917	85.32812
232.138	118.39869
232.358	255.79489
232.579	204.29029
232.799	39.36106
233.019	204.4926
233.24	237.99749
233.46	79.2751
233.68	133.95018
233.901	83.26214
234.121	54.02795
234.341	23.77122
234.561	-7.45257
234.782	43.59045
235.002	137.11566
235.222	-2.44924
235.442	130.61648
235.662	59.92927
235.883	120.4663
236.103	94.46356
236.323	75.44464
236.543	53.64435
236.763	82.86786
236.983	78.36773
237.203	80.89413
237.423	120.92843
237.643	183.86008
237.864	150.70172
238.084	38.44838
238.304	47.81969
238.524	86.59288
238.744	76.06526
238.964	136.18195
239.184	120.33945
239.404	123.66426
239.624	63.35035
239.843	107.44543
240.063	62.82924
240.283	41.88807
240.503	44.66465
240.723	43.28126
240.943	28.94341
241.163	34.51771
241.383	23.86837
241.603	13.36051
241.822	15.1362
242.042	11.12854
242.262	14.05648
242.482	15.05579
242.702	17.60352
242.921	5.53047
243.141	11.32623
243.361	11.44911
243.581	16.06605
243.8	13.97305
244.02	8.5976
244.24	16.51699
244.459	16.21896
244.679	31.79662
244.899	20.74935
245.118	24.07438
245.338	21.8621
245.558	23.76516
245.777	13.39041
245.997	16.40582
246.216	15.91682
246.436	9.74457
246.655	6.4413
246.875	5.79455
247.094	10.00818
247.314	4.08199
247.533	6.30032
247.753	6.97256
247.972	5.60916
248.192	2.31479
248.411	3.61107
248.631	5.88307
248.85	7.32562
249.07	7.36211
249.289	10.44599
249.508	7.67428
249.728	12.9399
249.947	12.68743
250.166	15.5523
250.386	7.85067
250.605	11.26081
250.824	19.74173
251.044	12.97743
251.263	39.4064
251.482	22.29244
251.701	18.46113
251.921	0.66834
252.14	6.29478
252.359	7.29301
252.578	16.57439
252.798	6.35621
253.017	14.70944
253.236	7.3276
253.455	10.09392
253.674	19.36623
253.893	8.65381
254.112	15.05671
254.331	20.15605
254.551	15.85374
254.77	8.21185
254.989	23.36231
255.208	18.0696
255.427	27.34796
255.646	22.90405
255.865	34.54067
256.084	14.48931
256.303	17.84274
256.522	22.05772
256.741	5.84249
256.96	5.43152
257.179	12.92658
257.397	18.09567
257.616	9.61951
257.835	10.73736
258.054	24.5067
258.273	16.62569
258.492	16.87136
258.711	10.88892
258.93	4.81854
259.148	7.27919
259.367	6.66111
259.586	8.72405
259.805	3.97011
260.023	7.49245
260.242	5.56351
260.461	4.49447
260.68	2.1917
260.898	6.6799
261.117	2.22962
261.336	1.69382
261.554	5.47042
261.773	5.90349
261.992	1.58596
262.21	5.60678
262.429	6.29716
262.648	11.05875
262.866	12.79629
263.085	9.49125
263.303	7.78089
263.522	14.30881
263.74	14.15278
263.959	24.04387
264.178	12.81138
264.396	10.03103
264.615	7.81755
264.833	17.68588
265.051	15.60674
265.27	17.01079
265.488	17.06023
265.707	10.32027
265.925	16.18341
266.144	8.06431
266.362	9.1792
266.58	9.96962
266.799	7.89251
267.017	9.35462
267.235	8.43523
267.454	5.7897
267.672	2.82616
267.89	6.89328
268.109	7.73055
268.327	7.21665
268.545	1.74989
268.763	6.35284
268.982	2.84358
269.2	7.83556
269.418	4.78619
269.636	3.68529
269.854	7.0825
270.073	5.07047
270.291	3.20298
270.509	2.8694
270.727	6.68159
270.945	11.19691
271.163	11.12848
271.381	2.71048
271.599	4.83794
271.817	7.89622
272.036	2.84062
272.254	5.34854
272.472	3.71004
272.69	3.67531
272.908	4.08335
273.126	6.15696
273.344	8.06447
273.562	3.22202
273.779	4.39627
273.997	6.68576
274.215	6.61431
274.433	4.55103
274.651	7.13205
274.869	7.04838
275.087	4.39443
275.305	6.6923
275.523	4.1526
275.74	4.86395
275.958	8.85369
276.176	12.03209
276.394	3.90298
276.612	5.10708
276.829	5.28904
277.047	4.59356
277.265	4.9405
277.483	5.42791
277.7	6.12732
277.918	5.4712
278.136	9.61396
278.353	4.651
278.571	2.75399
278.789	7.59098
279.006	1.6994
279.224	4.47121
279.442	7.81632
279.659	5.58016
279.877	3.76157
280.094	8.15123
280.312	1.85481
280.529	5.57419
280.747	1.90499
280.964	4.62819
281.182	8.50479
281.399	4.48278
281.617	5.64665
281.834	3.99041
282.052	3.13983
282.269	5.00253
282.487	3.99864
282.704	3.79088
282.921	3.34205
283.139	5.16268
283.356	6.6535
283.574	6.10247
283.791	2.95677
284.008	8.09337
284.226	4.88158
284.443	5.21287
284.66	6.21332
284.877	5.42027
285.095	3.48304
285.312	2.56004
285.529	1.59206
285.746	1.40522
285.964	3.04193
286.181	2.23583
286.398	3.12432
286.615	4.29115
286.832	4.16093
287.05	1.1489
287.267	3.00026
287.484	3.09712
287.701	4.21292
287.918	3.92013
288.135	4.27138
288.352	1.80162
288.569	2.42715
288.786	3.8768
289.003	2.99166
289.22	4.70304
289.437	2.59291
289.654	4.29674
289.871	4.40358
290.088	4.43563
290.305	3.49943
290.522	3.0775
290.739	3.05436
290.956	4.63246
291.173	5.43112
291.39	5.21293
291.607	3.49317
291.824	3.00641
292.04	2.18567
292.257	4.65705
292.474	5.0138
292.691	3.28609
292.908	1.70013
293.125	2.77053
293.341	1.87052
293.558	7.46777
293.775	3.28024
293.992	3.24774
294.208	1.30779
294.425	2.20633
294.642	2.90271
294.858	4.373
295.075	1.06566
295.292	3.12286
295.508	3.6405
295.725	5.14016
295.942	2.5664
296.158	1.97862
296.375	3.05618
296.591	2.3964
296.808	2.42071
297.024	2.91533
297.241	3.19714
297.458	3.47063
297.674	0.52124
297.891	2.76308
298.107	2.17019
298.323	1.68833
298.54	3.9914
298.756	2.08913
298.973	0.85977
299.189	4.37088
299.406	1.93884
299.622	4.29734
299.838	4.37577
300.055	3.94189
300.271	0.99991
300.487	1.54104
300.704	1.91401
300.92	1.0749
301.136	5.6448
301.353	4.38574
301.569	3.20156
301.785	3.23903
302.001	3.65251
302.218	3.52635
302.434	3.56423
302.65	1.18795
302.866	2.27777
303.083	5.85754
303.299	5.52738
303.515	3.01588
303.731	3.14299
303.947	1.18968
304.163	2.0563
304.379	3.03602
304.595	3.49302
304.812	2.1995
305.028	1.81202
305.244	2.44777
305.46	4.05361
305.676	3.98838
305.892	4.60771
306.108	3.47487
306.324	2.57324
306.54	5.31168
306.756	3.82502
306.972	3.61265
307.187	2.62507
307.403	5.15986
307.619	2.20461
307.835	4.45235
308.051	4.63453
308.267	1.54499
308.483	4.07383
308.699	3.49109
308.914	2.7269
309.13	2.99618
309.346	0.80334
309.562	1.53858
309.778	0.82556
309.993	3.70184
310.209	2.78943
310.425	1.25708
310.641	2.42429
310.856	1.49316
311.072	1.45962
311.288	2.54842
311.503	2.76633
311.719	0.62387
311.935	0.43561
312.15	3.06453
312.366	2.78985
312.581	3.33843
312.797	2.49143
313.013	3.69841
313.228	2.09022
313.444	2.9468
313.659	1.5518
313.875	3.19935
314.09	2.71769
314.306	4.47157
314.521	3.94704
314.737	3.66289
314.952	3.02477
315.168	2.87487
315.383	3.317
315.599	2.55121
315.814	2.68562
316.029	4.07025
316.245	1.34514
316.46	0.88237
316.675	4.538
316.891	5.39328
317.106	6.58086
317.321	3.70133
317.537	3.3157
317.752	3.74049
317.967	4.02406
318.183	2.0736
318.398	2.44671
318.613	4.29409
318.828	4.66308
319.043	4.0637
319.259	2.51231
319.474	3.17363
319.689	4.51046
319.904	0.68665
320.119	3.93548
320.334	3.37691
320.549	2.56344
320.765	4.39221
320.98	3.36247
321.195	4.09233
321.41	2.73664
321.625	4.00926
321.84	5.37302
322.055	5.3009
322.27	2.2782
322.485	1.66687
322.7	3.30307
322.915	4.3533
323.13	1.78575
323.345	4.82622
323.56	3.49325
323.775	3.93548
323.989	3.66172
324.204	3.07657
324.419	3.96771
324.634	1.29756
324.849	2.80572
325.064	5.39952
325.279	4.23308
325.493	3.63377
325.708	4.31416
325.923	1.98176
326.138	2.10557
326.352	4.78106
326.567	4.07713
326.782	2.53029
326.997	2.02591
327.211	3.60234
327.426	3.55984
327.641	2.49299
327.855	0.91504
328.07	3.62277
328.285	5.16392
328.499	2.627
328.714	3.42561
328.928	3.95489
329.143	3.01585
329.358	4.43038
329.572	4.23459
329.787	4.6124
330.001	6.37021
330.216	1.2791
330.43	5.10235
330.645	5.13235
330.859	4.08798
331.074	2.11926
331.288	3.1394
331.503	4.79899
331.717	1.70363
331.931	3.06408
332.146	3.15132
332.36	5.59277
332.575	3.61011
332.789	3.29758
333.003	2.8018
333.218	3.59884
333.432	2.07249
333.646	3.9955
333.86	4.89933
334.075	5.23094
334.289	2.30447
334.503	1.73632
334.717	3.63588
334.932	3.71804
335.146	4.40434
335.36	2.52687
335.574	3.91364
335.788	3.61808
336.003	4.45807
336.217	4.23458
336.431	3.74657
336.645	2.42265
336.859	1.79896
337.073	2.87613
337.287	3.00948
337.501	1.77389
337.715	3.25378
337.929	3.56715
338.143	1.5526
338.357	2.83344
338.571	1.8811
338.785	3.48477
338.999	2.38907
339.213	2.37127
339.427	1.33235
339.641	4.47975
339.855	2.55917
340.069	2.21012
340.283	4.28442
340.497	4.89323
340.711	3.36143
340.924	2.54662
341.138	1.70557
341.352	1.36101
341.566	2.96584
341.78	0.78067
341.993	2.12857
342.207	1.64515
342.421	3.09118
342.635	2.83449
342.848	2.0767
343.062	0.22822
343.276	2.08328
343.49	5.35429
343.703	2.09007
343.917	3.95678
344.131	3.75861
344.344	2.01854
344.558	2.25225
344.771	1.75838
344.985	4.16692
345.199	4.68713
345.412	3.15457
345.626	3.02019
345.839	0.79261
346.053	1.55642
346.266	1.59161
346.48	3.45314
346.693	3.07421
346.907	3.20102
347.12	1.77607
347.334	3.03539
347.547	3.1313
347.76	2.25724
347.974	4.06044
348.187	3.15775
348.401	2.51561
348.614	2.08706
348.827	2.38822
349.041	3.298
349.254	0.86349
349.467	2.4653
349.681	1.32739
349.894	2.10984
350.107	4.02459
350.32	4.74604
350.534	1.10519
350.747	2.35394
350.96	1.60749
351.173	1.72624
351.386	2.21474
351.6	2.10014
351.813	1.86485
352.026	2.64067
352.239	1.19206
352.452	2.36952
352.665	3.67344
352.878	2.33248
353.092	5.07145
353.305	3.28444
353.518	2.80132
353.731	1.66878
353.944	3.77775
354.157	1.92995
354.37	1.56087
354.583	1.5288
354.796	0.7045
355.009	3.78514
355.222	2.69997
355.435	2.62667
355.647	3.64613
355.86	1.45884
356.073	2.31117
356.286	1.90213
356.499	3.22198
356.712	2.93191
356.925	2.76683
357.138	3.55369
357.35	1.39802
357.563	1.97112
357.776	2.46615
357.989	2.02958
358.201	2.91006
358.414	2.52542
358.627	3.44041
358.84	2.06496
359.052	1.17895
359.265	1.2129
359.478	3.33368
359.69	-0.39006
359.903	3.05329
360.116	3.02826
360.328	0.64128
360.541	3.01097
360.753	1.24854
360.966	1.67405
361.179	1.65356
361.391	1.60255
361.604	1.07183
361.816	1.58758
362.029	1.40758
362.241	1.18569
362.454	1.56367
362.666	1.27778
362.879	2.1034
363.091	1.67543
363.304	1.23325
363.516	1.99795
363.728	0.94685
363.941	2.7426
364.153	1.48841
364.366	-0.0215
364.578	1.03266
364.79	2.50811
365.003	2.01049
365.215	1.74479
365.427	2.5371
365.639	3.35596
365.852	2.3029
366.064	3.99892
366.276	1.61842
366.488	2.55907
366.701	1.61712
366.913	1.87323
367.125	1.94319
367.337	1.33173
367.549	1.58351
367.762	2.14998
367.974	2.14345
368.186	1.33989
368.398	3.06216
368.61	2.71309
368.822	2.83132
369.034	2.11153
369.246	2.61595
369.458	4.40612
369.67	1.15291
369.882	3.95829
370.094	0.23591
370.306	3.66547
370.518	1.78269
370.73	1.43017
370.942	1.21364
371.154	1.83409
371.366	1.46109
371.578	2.22286
371.79	1.25874
372.002	3.22383
372.214	3.77575
372.425	2.20488
372.637	3.26375
372.849	2.35631
373.061	-0.06228
373.273	2.53338
373.484	2.57208
373.696	2.83381
373.908	-0.13903
374.12	3.12843
374.331	2.33716
374.543	1.31763
374.755	1.01637
374.967	2.25638
375.178	2.72581
375.39	1.84255
375.602	2.05676
375.813	0.75976
376.025	0.71535
376.236	1.96203
376.448	2.06957
376.66	1.43786
376.871	1.33295
377.083	2.88897
377.294	2.84396
377.506	1.41919
377.717	3.24088
377.929	1.96416
378.14	1.08336
378.352	2.4345
378.563	2.30792
378.775	3.09739
378.986	1.2814
379.197	2.10941
379.409	1.46025
379.62	2.71789
379.832	2.06889
380.043	1.7691
380.254	2.12997
380.466	0.74464
380.677	4.53798
380.888	4.03968
381.1	4.46401
381.311	3.80666
381.522	1.71661
381.733	4.73351
381.945	1.63711
382.156	2.18
382.367	1.5008
382.578	4.56519
382.789	4.3609
383.001	1.46546
383.212	3.14514
383.423	3.27368
383.634	3.03484
383.845	2.28853
384.056	1.32753
384.267	1.8122
384.478	1.75003
384.69	0.81866
384.901	2.41018
385.112	2.10759
385.323	3.34444
385.534	2.32293
385.745	2.1498
385.956	2.39316
386.167	0.92388
386.378	2.43605
386.588	0.71942
386.799	1.26872
387.01	0.31809
387.221	2.71461
387.432	1.65406
387.643	3.64384
387.854	1.59625
388.065	1.53339
388.275	1.71578
388.486	1.55051
388.697	1.80463
388.908	1.64622
389.119	2.95124
389.329	3.49464
389.54	1.98071
389.751	2.13205
389.962	2.95225
390.172	2.20845
390.383	1.29685
390.594	1.26763
390.804	1.2635
391.015	1.33593
391.226	1.83981
391.436	2.29905
391.647	2.08625
391.858	2.48908
392.068	0.3964
392.279	0.7397
392.489	1.82782
392.7	2.85199
392.91	0.75856
393.121	1.1672
393.331	2.23043
393.542	2.87689
393.752	2.31618
393.963	1.97303
394.173	1.73057
394.384	2.44297
394.594	1.84286
394.804	0.8122
395.015	1.93234
395.225	2.39924
395.436	0.82533
395.646	2.35619
395.856	1.17289
396.067	0.83125
396.277	2.83514
396.487	2.39168
396.697	1.94528
396.908	2.53332
397.118	2.61801
397.328	2.12314
397.538	2.876
397.749	1.32489
397.959	2.76132
398.169	2.58876
398.379	0.88977
398.589	2.6736
398.8	2.00738
399.01	1.90422
399.22	1.7569
399.43	4.156
399.64	1.64787
399.85	2.50573
400.06	1.86184
400.27	1.5215
400.48	2.08659
400.69	3.37439
400.9	1.63238
401.11	1.48387
401.32	2.85987
401.53	1.7625
401.74	3.62299
401.95	2.73365
402.16	1.21645
402.37	2.64988
402.58	1.563
402.79	2.70997
403	2.89372
403.209	1.56882
403.419	2.77213
403.629	1.73125
403.839	2.7965
404.049	2.90304
404.258	1.49123
404.468	1.18875
404.678	2.75633
404.888	2.69605
405.097	1.23651
405.307	2.06509
405.517	2.5162
405.727	2.36637
405.936	1.85192
406.146	2.45251
406.356	3.33781
406.565	2.23226
406.775	1.85962
406.984	1.8786
407.194	3.82265
407.404	2.38249
407.613	2.65096
407.823	3.01594
408.032	3.49499
408.242	3.38737
408.451	1.97365
408.661	2.34548
408.87	4.04743
409.08	1.97287
409.289	2.80629
409.499	2.55348
409.708	2.55618
409.918	0.72609
410.127	2.48457
410.336	3.95991
410.546	3.04162
410.755	2.25348
410.964	2.17146
411.174	1.84991
411.383	2.99891
411.592	3.05048
411.802	1.72961
412.011	3.62422
412.22	2.66117
412.429	4.07658
412.639	3.86637
412.848	3.97998
413.057	4.08236
413.266	3.79079
413.475	2.75149
413.685	3.53897
413.894	3.60851
414.103	3.83069
414.312	3.36252
414.521	2.77241
414.73	2.89067
414.939	4.45888
415.148	3.33908
415.357	3.03345
415.566	2.57673
415.776	2.4504
415.985	2.30578
416.194	3.51585
416.403	4.14041
416.611	1.79369
416.82	2.31761
417.029	2.78999
417.238	2.18977
417.447	2.06241
417.656	2.30493
417.865	2.15626
418.074	2.34651
418.283	2.57101
418.492	3.26147
418.7	3.11963
418.909	3.70689
419.118	2.70746
419.327	2.9362
419.536	2.7783
419.744	2.26667
419.953	3.33948
420.162	3.30377
420.371	2.33645
420.579	2.29751
420.788	3.2934
420.997	3.28802
421.205	3.42417
421.414	2.98913
421.623	3.03341
421.831	2.69236
422.04	3.44421
422.249	2.61749
422.457	3.2363
422.666	2.54142
422.874	3.58644
423.083	3.60666
423.291	3.5399
423.5	3.23527
423.708	3.37827
423.917	3.81895
424.125	3.22683
424.334	3.02418
424.542	4.81916
424.751	4.04069
424.959	3.89227
425.167	4.17448
425.376	3.99428
425.584	3.22085
425.793	3.62785
