Data from WindowProjectSample3_Transmission__48__00048.txt Node

Date: Sun May 04 11:16:16 EDT 2025
User: jessi
Spectrometer: SR400872
Trigger mode: 0
Integration Time (sec): 5.000050E-1
Scans to average: 20
Electric dark correction enabled: true
Nonlinearity correction enabled: true
Boxcar width: 0
XAxis mode: Wavelengths
Number of Pixels in Spectrum: 3648
>>>>>Begin Spectral Data<<<<<
184.909	-1294.0269
185.132	-1463.45702
185.355	-1144.17093
185.578	-1079.47906
185.801	1036.48473
186.024	-940.33698
186.247	-5032.53048
186.47	-1700.47304
186.693	-276.86703
186.916	-300.3789
187.139	-791.55107
187.362	-2870.83365
187.585	-685.04425
187.808	-5390.49103
188.031	9865.36376
188.254	-2345.70069
188.476	-8721.76858
188.699	-1039.52446
188.922	589.85636
189.145	-1213.04253
189.368	3037.60344
189.591	-2345.2002
189.813	-1514.25414
190.036	-852.42534
190.259	-1125.64441
190.482	-1593.14605
190.705	-2356.10015
190.927	-706.05551
191.15	-1503.35975
191.373	-1115.25996
191.595	-1252.58758
191.818	-1289.65736
192.041	-638.06906
192.263	-1094.17422
192.486	-574.33891
192.709	-1552.48959
192.931	-3187.17203
193.154	-1149.03974
193.377	-1615.37028
193.599	-3240.67798
193.822	-3447.13811
194.044	-3155.65315
194.267	-1646.63919
194.489	-122.61234
194.712	-952.06683
194.934	-1715.8557
195.157	-901.01798
195.379	-1167.9181
195.602	-843.86664
195.824	-1292.05015
196.047	-1993.20292
196.269	-1072.16814
196.492	-1373.22629
196.714	-1272.56298
196.936	-1225.82269
197.159	-914.64047
197.381	-685.81477
197.604	-557.43351
197.826	-2080.73398
198.048	-1135.3696
198.271	-1579.67184
198.493	-1142.66
198.715	-940.60254
198.938	-3348.99589
199.16	-4091.6814
199.382	-1211.97647
199.604	-1142.17665
199.827	-1861.59433
200.049	-1530.8366
200.271	-1192.28347
200.493	-1393.31661
200.715	-993.2052
200.938	-828.85367
201.16	-944.11556
201.382	-1033.12399
201.604	-1279.74929
201.826	-715.71202
202.048	-827.8136
202.27	-1441.07473
202.492	-1423.30271
202.715	-1817.94169
202.937	-1937.9007
203.159	-1305.96495
203.381	-1550.42494
203.603	-973.05861
203.825	-4934.66145
204.047	-1699.40695
204.269	-1376.67775
204.491	-1193.14802
204.713	-1482.14492
204.935	-1368.56255
205.156	-2590.87455
205.378	-2658.77074
205.6	-1559.01524
205.822	-1089.4955
206.044	1303.59993
206.266	-1258.16182
206.488	-823.87306
206.71	-1722.41193
206.932	-1754.36905
207.153	-1079.56971
207.375	-1373.14728
207.597	-1065.8116
207.819	-1111.22683
208.041	-1154.98271
208.262	-1773.76265
208.484	-891.35335
208.706	-2022.37063
208.927	-806.26765
209.149	-1396.93294
209.371	-1185.50469
209.593	-1419.72419
209.814	-588.96547
210.036	-840.71686
210.258	-694.19903
210.479	-1017.01157
210.701	-1777.43885
210.922	-1214.01982
211.144	-1012.98267
211.366	-1108.10248
211.587	1382.73864
211.809	-1142.14084
212.03	-6433.68341
212.252	832.4807
212.473	-942.34538
212.695	-18026.55963
212.916	-3440.31271
213.138	-1784.17295
213.359	-917.85197
213.581	-1421.43863
213.802	-874.47599
214.024	-1342.34629
214.245	-11285.89554
214.466	-894.18103
214.688	-1426.73147
214.909	-1012.10321
215.131	-2738.23579
215.352	-3889.95302
215.573	-1077.20062
215.795	-1826.62276
216.016	-1461.82872
216.237	-2972.77623
216.459	-1421.62246
216.68	-1044.76694
216.901	-1512.16169
217.122	12078.07444
217.344	-978.4303
217.565	-1279.45348
217.786	-1314.73593
218.007	-968.11113
218.228	-1283.14408
218.45	-1145.67981
218.671	-1051.4692
218.892	-975.0372
219.113	-1525.00091
219.334	-103.89509
219.555	-1592.40547
219.776	-1529.91879
219.997	-1241.29643
220.219	16667.09105
220.44	-1212.84973
220.661	-3199.17428
220.882	-912.54752
221.103	1647.01647
221.324	-2684.0926
221.545	-1146.95153
221.766	-1317.51549
221.987	-1788.13224
222.208	-2023.54593
222.429	-749.67921
222.65	-831.41681
222.87	-1510.95456
223.091	-3438.06571
223.312	3109.43078
223.533	-1158.64309
223.754	-1549.18115
223.975	-2162.0823
224.196	8472.09084
224.417	-7718.57151
224.637	3924.84038
224.858	138.33133
225.079	-1876.95548
225.3	26074.65485
225.521	-1045.64967
225.741	-5134.70297
225.962	7064.92411
226.183	338.3483
226.404	-3584.89035
226.624	2432.67787
226.845	-82871.67424
227.066	-642729.84462
227.286	876.16884
227.507	328.27993
227.728	284.46492
227.948	657.76
228.169	163.25233
228.389	168.18918
228.61	96.66655
228.831	133.31328
229.051	8.38377
229.272	70.75759
229.492	102.35473
229.713	26.97886
229.933	71.62118
230.154	59.03188
230.374	101.96407
230.595	74.22937
230.815	43.92408
231.036	74.50856
231.256	-10.36965
231.477	126.87544
231.697	74.14939
231.917	78.22264
232.138	117.10674
232.358	233.85914
232.579	188.48908
232.799	28.53969
233.019	192.21357
233.24	239.24745
233.46	78.49374
233.68	119.37821
233.901	77.84733
234.121	55.45166
234.341	18.58505
234.561	-8.28222
234.782	75.18413
235.002	133.93271
235.222	-2.02509
235.442	116.97173
235.662	56.15127
235.883	111.59946
236.103	94.38598
236.323	67.26883
236.543	50.7383
236.763	72.97959
236.983	84.06182
237.203	77.51175
237.423	111.70353
237.643	167.0735
237.864	148.70673
238.084	38.71609
238.304	47.18154
238.524	85.19132
238.744	77.97528
238.964	132.15142
239.184	114.47026
239.404	127.44144
239.624	65.05505
239.843	107.95006
240.063	65.91216
240.283	43.63689
240.503	45.76316
240.723	46.13382
240.943	27.91066
241.163	34.07725
241.383	24.32072
241.603	14.01975
241.822	14.54596
242.042	10.35793
242.262	14.43668
242.482	15.43825
242.702	17.02365
242.921	5.64315
243.141	10.62203
243.361	10.35305
243.581	15.4317
243.8	13.15453
244.02	7.75691
244.24	15.58231
244.459	14.41368
244.679	28.79023
244.899	18.44141
245.118	22.93118
245.338	20.47298
245.558	23.18592
245.777	13.24815
245.997	17.4589
246.216	17.5148
246.436	10.58417
246.655	7.37284
246.875	5.73285
247.094	10.43997
247.314	3.69254
247.533	6.16704
247.753	6.71379
247.972	5.38416
248.192	2.28634
248.411	3.19401
248.631	5.48019
248.85	6.8894
249.07	6.79499
249.289	9.36113
249.508	6.62385
249.728	10.6069
249.947	11.46441
250.166	14.95514
250.386	6.80382
250.605	11.64182
250.824	18.67535
251.044	12.46005
251.263	39.42815
251.482	22.58743
251.701	19.14829
251.921	0.54025
252.14	5.6042
252.359	6.94416
252.578	16.23849
252.798	5.9411
253.017	14.03519
253.236	6.83233
253.455	9.1608
253.674	18.72567
253.893	8.03315
254.112	12.79248
254.331	18.81831
254.551	16.24334
254.77	7.93517
254.989	21.96457
255.208	17.80221
255.427	26.39238
255.646	22.70385
255.865	32.76538
256.084	14.82016
256.303	18.55436
256.522	22.73802
256.741	5.21561
256.96	6.33036
257.179	13.83225
257.397	17.46816
257.616	10.20154
257.835	10.04521
258.054	24.5624
258.273	16.93471
258.492	17.18717
258.711	11.28649
258.93	4.84961
259.148	7.78151
259.367	7.4113
259.586	9.25448
259.805	4.23066
260.023	7.64738
260.242	5.65906
260.461	4.38811
260.68	2.50848
260.898	6.68134
261.117	2.25201
261.336	1.62807
261.554	5.35062
261.773	5.42961
261.992	1.58785
262.21	5.22605
262.429	6.50848
262.648	11.07106
262.866	12.60819
263.085	9.44923
263.303	7.51473
263.522	14.49622
263.74	13.81811
263.959	23.93164
264.178	12.55658
264.396	10.67069
264.615	7.8466
264.833	17.93323
265.051	14.40969
265.27	17.69249
265.488	17.27246
265.707	10.78289
265.925	17.18104
266.144	8.2197
266.362	9.41963
266.58	9.67364
266.799	8.21659
267.017	9.41245
267.235	9.00705
267.454	5.95013
267.672	3.02142
267.89	7.26738
268.109	7.77033
268.327	7.29672
268.545	1.3197
268.763	6.79217
268.982	2.76828
269.2	7.77861
269.418	4.91659
269.636	4.25937
269.854	7.20773
270.073	5.34228
270.291	2.9478
270.509	3.10249
270.727	7.26643
270.945	11.96745
271.163	11.57646
271.381	2.63485
271.599	4.98563
271.817	8.13936
272.036	2.85288
272.254	5.54821
272.472	3.72859
272.69	3.742
272.908	4.16556
273.126	6.32866
273.344	8.29777
273.562	3.04184
273.779	4.36736
273.997	6.75004
274.215	6.46905
274.433	4.67776
274.651	7.05274
274.869	7.13778
275.087	4.15986
275.305	6.46552
275.523	4.43293
275.74	4.88409
275.958	8.99427
276.176	12.82243
276.394	3.75832
276.612	5.45541
276.829	5.39964
277.047	4.82593
277.265	5.09537
277.483	6.11957
277.7	6.36632
277.918	5.68274
278.136	10.17498
278.353	4.81169
278.571	2.97293
278.789	8.00766
279.006	1.66963
279.224	4.76535
279.442	8.17731
279.659	5.73226
279.877	3.65158
280.094	8.28599
280.312	1.88432
280.529	5.79555
280.747	2.25657
280.964	4.92142
281.182	8.9247
281.399	4.85177
281.617	5.88146
281.834	4.35577
282.052	3.15264
282.269	5.32551
282.487	4.29072
282.704	3.71134
282.921	3.50913
283.139	5.3575
283.356	6.79427
283.574	6.32937
283.791	3.13335
284.008	8.35769
284.226	5.05215
284.443	5.59439
284.66	7.04093
284.877	5.68191
285.095	3.70567
285.312	2.84916
285.529	1.64503
285.746	1.63915
285.964	3.49689
286.181	2.2867
286.398	3.05417
286.615	4.58051
286.832	4.28737
287.05	1.10314
287.267	2.87716
287.484	3.11742
287.701	4.3802
287.918	4.16782
288.135	4.34752
288.352	1.85999
288.569	2.3706
288.786	4.15017
289.003	3.11709
289.22	5.07362
289.437	2.85837
289.654	4.59226
289.871	4.73392
290.088	4.91831
290.305	3.77119
290.522	3.23591
290.739	3.24259
290.956	4.90327
291.173	5.8045
291.39	5.45774
291.607	3.80414
291.824	3.29174
292.04	2.27823
292.257	4.85746
292.474	5.22592
292.691	3.51024
292.908	1.74186
293.125	2.8086
293.341	1.81511
293.558	8.19644
293.775	3.6479
293.992	3.87457
294.208	1.32835
294.425	2.26257
294.642	3.2455
294.858	4.61494
295.075	1.28573
295.292	3.2347
295.508	4.0087
295.725	5.62047
295.942	2.95192
296.158	2.14816
296.375	3.56938
296.591	2.69482
296.808	2.60347
297.024	3.19196
297.241	3.4861
297.458	3.75684
297.674	0.40029
297.891	2.95846
298.107	2.43963
298.323	1.83722
298.54	4.23225
298.756	2.1987
298.973	0.9663
299.189	4.51987
299.406	1.90691
299.622	4.53868
299.838	4.57732
300.055	4.05888
300.271	1.04275
300.487	1.79822
300.704	1.89856
300.92	1.16485
301.136	6.2149
301.353	4.84994
301.569	3.39475
301.785	3.46013
302.001	4.13174
302.218	3.69861
302.434	3.88934
302.65	1.38677
302.866	2.42629
303.083	6.52038
303.299	6.14021
303.515	3.28357
303.731	3.63442
303.947	1.16929
304.163	2.30565
304.379	3.45267
304.595	3.82528
304.812	2.28373
305.028	2.04746
305.244	2.68073
305.46	4.37734
305.676	4.32826
305.892	5.24178
306.108	3.84139
306.324	2.6888
306.54	6.04456
306.756	4.12111
306.972	4.05406
307.187	2.84958
307.403	5.75083
307.619	2.56452
307.835	4.9186
308.051	5.34239
308.267	1.7573
308.483	4.71925
308.699	3.88244
308.914	3.29345
309.13	3.37306
309.346	0.92301
309.562	1.61146
309.778	1.03121
309.993	3.89843
310.209	3.02517
310.425	1.44272
310.641	2.74629
310.856	1.55887
311.072	1.6415
311.288	2.99408
311.503	3.24861
311.719	0.70488
311.935	0.45
312.15	3.56978
312.366	3.08369
312.581	3.66249
312.797	2.61969
313.013	4.02535
313.228	2.20938
313.444	2.99557
313.659	1.83282
313.875	3.75489
314.09	2.87778
314.306	5.34757
314.521	4.34924
314.737	4.07507
314.952	3.65793
315.168	3.1553
315.383	3.80088
315.599	2.93291
315.814	2.57313
316.029	4.61256
316.245	1.35452
316.46	1.00604
316.675	5.13845
316.891	6.15791
317.106	7.63363
317.321	4.24023
317.537	3.8605
317.752	4.31249
317.967	4.28288
318.183	2.22867
318.398	2.93523
318.613	4.82643
318.828	5.44473
319.043	4.71634
319.259	3.19323
319.474	3.62809
319.689	5.22032
319.904	0.65034
320.119	4.53538
320.334	3.81281
320.549	2.85479
320.765	5.01569
320.98	3.85271
321.195	4.92921
321.41	3.26025
321.625	4.66603
321.84	6.10348
322.055	6.13509
322.27	2.65069
322.485	2.03794
322.7	3.76227
322.915	5.03799
323.13	2.13376
323.345	5.41581
323.56	3.9704
323.775	4.44773
323.989	4.17278
324.204	3.70642
324.419	4.51155
324.634	1.54634
324.849	3.24737
325.064	6.11745
325.279	4.80188
325.493	4.14543
325.708	4.91257
325.923	2.34652
326.138	2.41022
326.352	5.71594
326.567	4.54304
326.782	2.6999
326.997	2.2928
327.211	4.45432
327.426	4.03611
327.641	2.96592
327.855	1.01326
328.07	4.21117
328.285	5.91369
328.499	3.08879
328.714	3.91539
328.928	4.73386
329.143	3.48232
329.358	5.10154
329.572	4.83482
329.787	5.31821
330.001	7.34047
330.216	1.56198
330.43	6.00586
330.645	6.1035
330.859	4.93435
331.074	2.34911
331.288	3.83541
331.503	5.70117
331.717	2.18353
331.931	3.27272
332.146	3.90901
332.36	6.54368
332.575	4.34034
332.789	3.84347
333.003	3.30813
333.218	4.3769
333.432	2.45075
333.646	4.64461
333.86	5.98772
334.075	6.27603
334.289	2.71211
334.503	2.1233
334.717	4.37795
334.932	4.16974
335.146	5.22836
335.36	2.74365
335.574	4.43441
335.788	4.25052
336.003	5.01142
336.217	4.62454
336.431	4.30608
336.645	2.76442
336.859	1.83002
337.073	3.40596
337.287	3.68057
337.501	2.14247
337.715	3.91107
337.929	4.5334
338.143	1.89653
338.357	3.40866
338.571	2.31389
338.785	4.25806
338.999	2.73647
339.213	2.62479
339.427	1.49118
339.641	5.13744
339.855	2.96739
340.069	2.47421
340.283	4.889
340.497	5.87141
340.711	3.98559
340.924	3.02785
341.138	2.15104
341.352	1.56361
341.566	3.66772
341.78	0.79115
341.993	2.5757
342.207	2.10894
342.421	3.78704
342.635	3.30834
342.848	2.63171
343.062	0.33543
343.276	2.3213
343.49	6.37309
343.703	2.46899
343.917	4.58135
344.131	4.65667
344.344	2.44204
344.558	2.78291
344.771	2.00299
344.985	5.02436
345.199	5.62374
345.412	3.73822
345.626	3.67305
345.839	1.03978
346.053	1.79053
346.266	1.83935
346.48	4.16562
346.693	3.64268
346.907	3.81756
347.12	2.02332
347.334	3.50039
347.547	3.77853
347.76	2.81918
347.974	4.98621
348.187	3.71843
348.401	2.8372
348.614	2.60192
348.827	2.8427
349.041	3.92664
349.254	0.81869
349.467	3.09465
349.681	1.66246
349.894	2.51593
350.107	4.82692
350.32	5.6898
350.534	1.11047
350.747	2.79417
350.96	1.89805
351.173	2.03717
351.386	2.66068
351.6	2.52795
351.813	2.18661
352.026	3.1474
352.239	1.48927
352.452	2.93903
352.665	4.41136
352.878	2.68353
353.092	6.02976
353.305	4.02833
353.518	3.22605
353.731	2.0275
353.944	4.47575
354.157	2.1583
354.37	1.99853
354.583	1.70761
354.796	0.7851
355.009	4.6072
355.222	3.06244
355.435	3.20481
355.647	4.5497
355.86	1.58427
356.073	2.90895
356.286	2.34506
356.499	3.97442
356.712	3.38017
356.925	3.44606
357.138	4.18042
357.35	1.54268
357.563	2.38841
357.776	2.9364
357.989	2.38356
358.201	3.44186
358.414	3.06196
358.627	4.07936
358.84	2.35253
359.052	1.49201
359.265	1.34451
359.478	4.04338
359.69	-0.47999
359.903	3.74188
360.116	3.78344
360.328	0.76358
360.541	3.66556
360.753	1.47841
360.966	1.90529
361.179	2.01844
361.391	1.964
361.604	1.38484
361.816	1.91833
362.029	1.65726
362.241	1.35034
362.454	1.75746
362.666	1.50357
362.879	2.43944
363.091	2.0242
363.304	1.433
363.516	2.31601
363.728	0.97204
363.941	3.13156
364.153	1.74259
364.366	-0.14525
364.578	1.22695
364.79	2.97849
365.003	2.32812
365.215	1.99245
365.427	3.03173
365.639	3.90979
365.852	2.81405
366.064	4.77244
366.276	1.84888
366.488	3.02378
366.701	2.01931
366.913	2.28515
367.125	2.31861
367.337	1.61377
367.549	1.92647
367.762	2.57186
367.974	2.54074
368.186	1.56951
368.398	3.75241
368.61	3.30146
368.822	3.4669
369.034	2.46084
369.246	3.19935
369.458	5.35795
369.67	1.4851
369.882	4.86597
370.094	0.24891
370.306	4.4724
370.518	2.11982
370.73	1.72498
370.942	1.54625
371.154	2.18055
371.366	1.84052
371.578	2.80307
371.79	1.42694
372.002	3.92118
372.214	4.57674
372.425	2.83677
372.637	4.09263
372.849	2.84585
373.061	-0.02297
373.273	2.98945
373.484	3.10281
373.696	3.4686
373.908	-0.20151
374.12	3.77667
374.331	2.9272
374.543	1.6905
374.755	1.31326
374.967	2.56021
375.178	3.48151
375.39	2.26148
375.602	2.5127
375.813	0.93208
376.025	0.98921
376.236	2.20125
376.448	2.61921
376.66	1.79257
376.871	1.82797
377.083	3.45093
377.294	3.50493
377.506	1.68096
377.717	3.85576
377.929	2.42582
378.14	1.31035
378.352	3.00842
378.563	2.72468
378.775	3.82605
378.986	1.50107
379.197	2.30913
379.409	1.75629
379.62	3.30656
379.832	2.55298
380.043	1.86411
380.254	2.53562
380.466	0.97658
380.677	5.56231
380.888	5.09841
381.1	5.36854
381.311	5.06907
381.522	2.21138
381.733	5.86137
381.945	2.07095
382.156	2.6197
382.367	1.51905
382.578	5.55677
382.789	5.34659
383.001	1.88678
383.212	3.95922
383.423	4.07274
383.634	3.64174
383.845	2.69998
384.056	1.85125
384.267	2.24317
384.478	2.12284
384.69	0.98187
384.901	3.03098
385.112	2.78275
385.323	4.17753
385.534	2.83857
385.745	2.44827
385.956	2.78932
386.167	1.19271
386.378	2.96136
386.588	0.85211
386.799	1.5273
387.01	0.43306
387.221	3.20049
387.432	2.16004
387.643	4.63838
387.854	1.937
388.065	1.81732
388.275	1.99544
388.486	1.84283
388.697	2.11004
388.908	1.92436
389.119	3.56411
389.329	4.31218
389.54	2.35934
389.751	2.87901
389.962	3.7808
390.172	2.66028
390.383	1.61174
390.594	1.54827
390.804	1.53448
391.015	1.48783
391.226	2.19871
391.436	2.72789
391.647	2.56802
391.858	2.88681
392.068	0.39252
392.279	0.79801
392.489	2.07647
392.7	3.46219
392.91	0.87771
393.121	1.32257
393.331	2.78435
393.542	3.52964
393.752	2.37026
393.963	2.28326
394.173	2.11962
394.384	2.89165
394.594	2.04016
394.804	0.8586
395.015	2.23026
395.225	2.89988
395.436	0.79999
395.646	2.82192
395.856	1.18566
396.067	0.86385
396.277	3.25299
396.487	2.71359
396.697	2.04502
396.908	3.1163
397.118	3.13935
397.328	2.38662
397.538	3.377
397.749	1.55592
397.959	3.34081
398.169	3.10104
398.379	0.95702
398.589	3.18258
398.8	2.28934
399.01	2.04709
399.22	1.80916
399.43	4.88081
399.64	1.81755
399.85	3.05674
400.06	1.95963
400.27	1.59029
400.48	2.42857
400.69	4.11607
400.9	1.80892
401.11	1.54413
401.32	3.38094
401.53	1.77898
401.74	4.3113
401.95	3.20176
402.16	1.19382
402.37	2.95345
402.58	1.6151
402.79	3.14904
403	3.25353
403.209	1.75715
403.419	3.17878
403.629	1.72297
403.839	3.18466
404.049	3.15668
404.258	1.41371
404.468	1.12769
404.678	2.79428
404.888	2.86557
405.097	1.0657
405.307	2.04021
405.517	2.68198
405.727	2.41873
405.936	1.78321
406.146	2.50024
406.356	3.66466
406.565	2.2006
406.775	1.80553
406.984	1.79644
407.194	4.19159
407.404	2.4067
407.613	2.67618
407.823	3.16804
408.032	3.55086
408.242	3.58582
408.451	1.74557
408.661	2.2342
408.87	4.42286
409.08	1.84424
409.289	2.97917
409.499	2.66042
409.708	2.68653
409.918	0.37134
410.127	2.34212
410.336	4.02933
410.546	3.00852
410.755	2.11197
410.964	1.93483
411.174	1.65005
411.383	3.08301
411.592	3.02867
411.802	1.39368
412.011	3.65097
412.22	2.49247
412.429	4.0312
412.639	3.8935
412.848	4.05152
413.057	4.31858
413.266	3.86224
413.475	2.62295
413.685	3.56291
413.894	3.62802
414.103	3.87234
414.312	3.38024
414.521	2.61253
414.73	2.94649
414.939	4.69123
415.148	3.20243
415.357	2.95698
415.566	2.11991
415.776	2.25407
415.985	1.95296
416.194	3.36985
416.403	4.15673
416.611	1.21481
416.82	1.80402
417.029	2.39654
417.238	1.55581
417.447	1.27906
417.656	1.72059
417.865	1.45165
418.074	1.65693
418.283	1.96779
418.492	2.71522
418.7	2.52845
418.909	3.16993
419.118	2.05487
419.327	2.27024
419.536	2.02758
419.744	1.29016
419.953	2.58198
420.162	2.52583
420.371	1.1748
420.579	0.89678
420.788	2.12027
420.997	1.97741
421.205	2.05523
421.414	1.70356
421.623	1.4954
421.831	1.16794
422.04	2.17578
422.249	1.26018
422.457	1.99616
422.666	1.34012
422.874	2.50411
423.083	2.4391
423.291	2.27525
423.5	1.86397
423.708	2.01097
423.917	2.34917
424.125	1.83093
424.334	1.43503
424.542	3.45392
424.751	2.53656
424.959	2.41334
425.167	2.73491
425.376	2.75932
425.584	2.05612
