Data from WindowProjectSample3_Transmission__34__00034.txt Node

Date: Sun May 04 10:35:54 EDT 2025
User: jessi
Spectrometer: SR400872
Trigger mode: 0
Integration Time (sec): 5.000050E-1
Scans to average: 20
Electric dark correction enabled: true
Nonlinearity correction enabled: true
Boxcar width: 0
XAxis mode: Wavelengths
Number of Pixels in Spectrum: 3648
>>>>>Begin Spectral Data<<<<<
184.909	-1592.78921
185.132	-1305.11253
185.355	-1290.32418
185.578	-1069.21867
185.801	-3595.29138
186.024	-1066.64001
186.247	-1330.06163
186.47	-2681.73117
186.693	-270.87981
186.916	-171.43557
187.139	-1005.66627
187.362	-1663.75359
187.585	-978.01607
187.808	-904.43397
188.031	-212886.86376
188.254	-1278.9098
188.476	-874.60481
188.699	-1101.88509
188.922	513.92385
189.145	-1255.45101
189.368	-1118.3678
189.591	-3398.20681
189.813	-741.09695
190.036	-1263.50858
190.259	-3212.21141
190.482	-1566.99906
190.705	-1729.44566
190.927	-988.52923
191.15	-1698.58178
191.373	-2333.6981
191.595	-2736.38173
191.818	-1188.8456
192.041	-15718.69166
192.263	-1511.52254
192.486	-426.28336
192.709	-1670.5887
192.931	-4345.37213
193.154	-1207.97303
193.377	-1215.12162
193.599	12061.93177
193.822	-802.87969
194.044	-3647.69861
194.267	-4629.08774
194.489	-1583.14612
194.712	-1779.37301
194.934	-1631.52228
195.157	-1060.06523
195.379	-697.18955
195.602	-827.38094
195.824	-1027.1614
196.047	-911.95461
196.269	-1054.68031
196.492	-1103.27829
196.714	-1074.89909
196.936	-1553.1126
197.159	-852.17438
197.381	-950.11005
197.604	-1265.59292
197.826	-1868.05808
198.048	-1562.06229
198.271	-1273.86567
198.493	-1074.64752
198.715	-910.54175
198.938	-6194.14609
199.16	-1191.2802
199.382	-916.5714
199.604	-9348.4391
199.827	-1595.6555
200.049	-972.68927
200.271	-867.96347
200.493	-2121.39533
200.715	-1005.50323
200.938	-786.49307
201.16	-1305.19224
201.382	-2712.12742
201.604	-1285.1501
201.826	-1218.40707
202.048	-548.56354
202.27	-848.52639
202.492	-1965.8356
202.715	-1980.40026
202.937	-2312.53301
203.159	-1179.31979
203.381	-1659.20832
203.603	-1355.47684
203.825	3984.14683
204.047	-1171.79277
204.269	-3178.05098
204.491	-1507.85529
204.713	-772.07881
204.935	-1278.6976
205.156	-1267.69746
205.378	-3852.85828
205.6	-951.68854
205.822	-1084.28206
206.044	2637.36298
206.266	-1309.60967
206.488	-742.38384
206.71	-1910.7129
206.932	-2342.89941
207.153	-1218.02668
207.375	-936.28992
207.597	-1105.94415
207.819	-882.96233
208.041	-1228.19748
208.262	-1155.13298
208.484	-1983.52754
208.706	-841.97715
208.927	-814.80371
209.149	-2352.28311
209.371	-804.55427
209.593	-680.57909
209.814	-636.80172
210.036	-715.3309
210.258	-569.33504
210.479	-1457.32249
210.701	11538.47971
210.922	-906.10581
211.144	-976.84831
211.366	-1977.43204
211.587	10811.27727
211.809	-966.27998
212.03	-3044.08538
212.252	1851.29627
212.473	-1209.31485
212.695	-4610.07845
212.916	-2938.61894
213.138	-6108.7464
213.359	-1008.20382
213.581	-1549.16247
213.802	-959.56665
214.024	-1326.51512
214.245	-10997.1217
214.466	-823.7593
214.688	-1312.61366
214.909	-1536.71947
215.131	-1994.30175
215.352	-947.27839
215.573	-1231.6469
215.795	-3135.6057
216.016	-1125.48305
216.237	-4395.71839
216.459	-14106.21429
216.68	-1600.24983
216.901	-1409.13594
217.122	-3646.61618
217.344	-1242.04212
217.565	-1558.95394
217.786	-1439.70974
218.007	-1157.46859
218.228	-4634.89111
218.45	-1174.65809
218.671	-1384.53421
218.892	-1615.14373
219.113	-2336.00068
219.334	-141.12988
219.555	-1395.81978
219.776	-857.40642
219.997	-1408.02813
220.219	-2880.67557
220.44	-1045.05353
220.661	-896.48506
220.882	-985.76831
221.103	-3047.69679
221.324	5674.06969
221.545	-1863.8875
221.766	-1315.71138
221.987	-2283.25721
222.208	-2860.66346
222.429	-906.44585
222.65	-1269.06993
222.87	5149.94836
223.091	-8540.83896
223.312	3898.19631
223.533	-1794.59141
223.754	-1639.41344
223.975	-2378.42634
224.196	158999.09602
224.417	-10164.94293
224.637	2147.64625
224.858	167.84673
225.079	-7331.52052
225.3	2387.62168
225.521	-865.06893
225.741	8530.85994
225.962	6955.72614
226.183	269.5558
226.404	9038.49996
226.624	1668.39821
226.845	8200.08583
227.066	1786.34187
227.286	723.23554
227.507	257.44015
227.728	287.51067
227.948	494.61895
228.169	140.88782
228.389	154.51136
228.61	83.4352
228.831	118.94489
229.051	9.61242
229.272	72.60931
229.492	105.78041
229.713	28.41581
229.933	70.85327
230.154	64.15339
230.374	106.1339
230.595	76.40872
230.815	46.99352
231.036	79.88438
231.256	-10.70321
231.477	139.72818
231.697	83.59372
231.917	85.9576
232.138	117.68109
232.358	254.03192
232.579	202.40188
232.799	39.58951
233.019	202.93589
233.24	228.85546
233.46	80.22269
233.68	133.51611
233.901	84.87829
234.121	57.44835
234.341	20.39297
234.561	-6.03607
234.782	39.12497
235.002	135.52913
235.222	-1.93081
235.442	130.01213
235.662	59.71805
235.883	118.89229
236.103	96.04327
236.323	78.41906
236.543	49.11361
236.763	82.82364
236.983	73.3393
237.203	81.18574
237.423	122.50013
237.643	178.14786
237.864	149.31905
238.084	40.46222
238.304	52.43108
238.524	88.26754
238.744	79.73307
238.964	135.55147
239.184	118.26517
239.404	122.64233
239.624	63.21179
239.843	104.63071
240.063	61.27984
240.283	40.90245
240.503	45.45988
240.723	44.16937
240.943	28.62422
241.163	33.51666
241.383	23.91415
241.603	12.96295
241.822	14.22816
242.042	10.66891
242.262	13.54649
242.482	15.31166
242.702	16.75761
242.921	5.48362
243.141	11.87579
243.361	10.98436
243.581	16.01056
243.8	13.83613
244.02	8.51837
244.24	17.04687
244.459	15.87748
244.679	32.10041
244.899	20.87377
245.118	24.75274
245.338	22.20726
245.558	24.29212
245.777	13.34215
245.997	16.27771
246.216	16.45858
246.436	9.78384
246.655	7.22279
246.875	5.59007
247.094	10.21663
247.314	3.58086
247.533	6.46044
247.753	6.9974
247.972	5.69831
248.192	2.0799
248.411	3.51273
248.631	5.7497
248.85	7.44698
249.07	7.57109
249.289	10.63212
249.508	7.18974
249.728	12.71716
249.947	12.58899
250.166	16.05569
250.386	7.71937
250.605	12.09717
250.824	20.13997
251.044	12.49024
251.263	39.10508
251.482	22.54197
251.701	18.84527
251.921	0.61998
252.14	6.42979
252.359	7.49733
252.578	16.43755
252.798	5.98212
253.017	14.09499
253.236	7.93729
253.455	10.27849
253.674	20.10207
253.893	9.93409
254.112	15.0909
254.331	21.26941
254.551	16.88594
254.77	8.50711
254.989	22.82829
255.208	17.70994
255.427	26.46972
255.646	23.15095
255.865	34.33333
256.084	14.78099
256.303	19.06492
256.522	23.06256
256.741	6.30472
256.96	6.01318
257.179	13.39528
257.397	18.60255
257.616	9.55894
257.835	10.68157
258.054	24.47165
258.273	16.99239
258.492	16.76263
258.711	10.45671
258.93	4.83412
259.148	7.09828
259.367	6.88833
259.586	8.53234
259.805	4.02843
260.023	7.40109
260.242	5.62679
260.461	4.4496
260.68	2.31957
260.898	6.68669
261.117	2.55851
261.336	1.55521
261.554	5.82845
261.773	5.97143
261.992	1.47499
262.21	6.02954
262.429	6.25377
262.648	11.09771
262.866	12.93693
263.085	9.2904
263.303	7.67993
263.522	15.058
263.74	13.98323
263.959	23.51366
264.178	12.21301
264.396	11.38506
264.615	7.51441
264.833	17.7858
265.051	15.35473
265.27	17.25415
265.488	17.20302
265.707	10.62133
265.925	16.42052
266.144	8.11191
266.362	8.94974
266.58	9.68442
266.799	8.03079
267.017	9.73151
267.235	8.06527
267.454	5.66291
267.672	2.99791
267.89	6.79588
268.109	7.19501
268.327	7.38234
268.545	1.42905
268.763	6.81981
268.982	3.17376
269.2	7.64371
269.418	4.81948
269.636	4.10576
269.854	7.45307
270.073	5.21799
270.291	3.20264
270.509	2.92406
270.727	6.67608
270.945	11.09498
271.163	10.92212
271.381	2.69505
271.599	4.8886
271.817	7.97994
272.036	2.59879
272.254	5.49767
272.472	3.94253
272.69	4.0471
272.908	4.08393
273.126	6.49071
273.344	7.98397
273.562	3.06635
273.779	4.22423
273.997	6.75829
274.215	6.32405
274.433	4.71601
274.651	7.26931
274.869	6.90752
275.087	4.48055
275.305	6.40709
275.523	4.35543
275.74	4.95146
275.958	8.60083
276.176	12.34398
276.394	3.95194
276.612	5.08735
276.829	4.91867
277.047	4.59432
277.265	4.77838
277.483	5.53579
277.7	6.34927
277.918	5.47519
278.136	9.67643
278.353	4.68898
278.571	2.764
278.789	7.38259
279.006	1.72571
279.224	4.59277
279.442	7.60667
279.659	5.50914
279.877	3.75821
280.094	8.01163
280.312	1.67287
280.529	5.42374
280.747	2.01926
280.964	4.64604
281.182	8.30974
281.399	4.76051
281.617	5.38808
281.834	4.1235
282.052	3.03108
282.269	4.9261
282.487	4.00291
282.704	3.73535
282.921	3.39773
283.139	5.04848
283.356	6.5838
283.574	5.961
283.791	2.88171
284.008	7.81904
284.226	4.71915
284.443	5.069
284.66	6.41407
284.877	5.79597
285.095	3.33398
285.312	2.67652
285.529	1.56217
285.746	1.26428
285.964	3.2911
286.181	2.186
286.398	3.05711
286.615	4.34891
286.832	4.07804
287.05	1.08352
287.267	2.93972
287.484	3.0964
287.701	4.36637
287.918	3.76617
288.135	4.26284
288.352	1.81494
288.569	2.38087
288.786	3.85107
289.003	2.74938
289.22	4.53566
289.437	2.51932
289.654	4.29629
289.871	4.44521
290.088	4.31987
290.305	3.44153
290.522	2.93316
290.739	3.22983
290.956	4.60459
291.173	5.56654
291.39	5.11555
291.607	3.65565
291.824	3.0174
292.04	2.12701
292.257	4.63697
292.474	5.06831
292.691	3.24494
292.908	1.6468
293.125	2.75394
293.341	1.82679
293.558	7.36381
293.775	3.27723
293.992	3.38844
294.208	1.27777
294.425	2.05983
294.642	2.93506
294.858	4.05688
295.075	1.18526
295.292	3.12979
295.508	3.57415
295.725	5.15128
295.942	2.70801
296.158	1.90963
296.375	3.13266
296.591	2.49991
296.808	2.515
297.024	2.93733
297.241	3.18836
297.458	3.46093
297.674	0.36476
297.891	2.7089
298.107	2.30638
298.323	1.70565
298.54	3.96206
298.756	2.12203
298.973	0.94197
299.189	4.28708
299.406	1.98616
299.622	4.27342
299.838	4.297
300.055	3.88376
300.271	0.95612
300.487	1.62636
300.704	1.94482
300.92	1.01143
301.136	5.65715
301.353	4.4222
301.569	3.09265
301.785	3.18613
302.001	4.01524
302.218	3.52802
302.434	3.66158
302.65	1.28657
302.866	2.11423
303.083	5.95901
303.299	5.68844
303.515	3.13739
303.731	3.34073
303.947	1.09036
304.163	2.07345
304.379	3.27645
304.595	3.49534
304.812	2.19887
305.028	1.83459
305.244	2.42307
305.46	4.00605
305.676	3.98328
305.892	4.73884
306.108	3.77025
306.324	2.50462
306.54	5.51727
306.756	3.81928
306.972	3.69966
307.187	2.6166
307.403	5.2107
307.619	2.32047
307.835	4.52885
308.051	4.64285
308.267	1.66691
308.483	4.32358
308.699	3.67685
308.914	2.86451
309.13	3.01548
309.346	0.88608
309.562	1.52403
309.778	1.13682
309.993	3.56286
310.209	2.80804
310.425	1.40567
310.641	2.43138
310.856	1.60337
311.072	1.48649
311.288	2.72976
311.503	3.00883
311.719	0.76856
311.935	0.57862
312.15	3.31784
312.366	2.92833
312.581	3.56125
312.797	2.75446
313.013	3.88096
313.228	2.24216
313.444	3.06718
313.659	1.81109
313.875	3.32365
314.09	2.79954
314.306	4.72323
314.521	3.91303
314.737	3.9262
314.952	3.30318
315.168	3.11649
315.383	3.36799
315.599	2.67196
315.814	2.56345
316.029	4.24764
316.245	1.52411
316.46	0.87951
316.675	4.70361
316.891	5.41022
317.106	6.86222
317.321	3.77503
317.537	3.58678
317.752	4.20167
317.967	4.20214
318.183	2.22143
318.398	2.58152
318.613	4.44431
318.828	4.77189
319.043	4.19749
319.259	2.83385
319.474	3.38198
319.689	4.54132
319.904	0.68417
320.119	4.28954
320.334	3.52006
320.549	2.65765
320.765	4.63316
320.98	3.69572
321.195	4.22325
321.41	3.06232
321.625	4.20625
321.84	5.35659
322.055	5.53261
322.27	2.22855
322.485	1.87213
322.7	3.44676
322.915	4.48166
323.13	2.11344
323.345	5.03725
323.56	3.99531
323.775	3.85137
323.989	3.81245
324.204	3.37438
324.419	4.14657
324.634	1.32193
324.849	3.03977
325.064	5.70683
325.279	4.37435
325.493	3.81561
325.708	4.31428
325.923	2.18022
326.138	2.28818
326.352	5.20337
326.567	4.12648
326.782	2.85739
326.997	2.33446
327.211	3.81271
327.426	3.72418
327.641	2.80637
327.855	1.19265
328.07	3.95641
328.285	5.44877
328.499	2.75811
328.714	3.56302
328.928	3.94036
329.143	3.19409
329.358	4.75785
329.572	4.64641
329.787	4.79805
330.001	6.78528
330.216	1.62244
330.43	5.59839
330.645	5.46815
330.859	4.41323
331.074	2.12996
331.288	3.34642
331.503	5.19275
331.717	1.90399
331.931	3.09422
332.146	3.50746
332.36	5.65928
332.575	3.98048
332.789	3.57468
333.003	3.02238
333.218	3.98108
333.432	2.44416
333.646	4.30994
333.86	5.19864
334.075	5.57524
334.289	2.5774
334.503	1.86734
334.717	3.89722
334.932	3.73944
335.146	4.49693
335.36	2.64292
335.574	4.29261
335.788	3.87617
336.003	4.61704
336.217	4.52633
336.431	3.8435
336.645	2.73139
336.859	1.93036
337.073	3.30558
337.287	3.43688
337.501	1.94853
337.715	3.62212
337.929	3.87532
338.143	1.77025
338.357	3.13405
338.571	2.20348
338.785	3.95813
338.999	2.5636
339.213	2.45933
339.427	1.64657
339.641	4.75027
339.855	2.67749
340.069	2.40194
340.283	4.38417
340.497	5.25243
340.711	3.88654
340.924	2.88222
341.138	2.04131
341.352	1.67983
341.566	3.35773
341.78	1.19747
341.993	2.51338
342.207	2.11081
342.421	3.59721
342.635	3.01501
342.848	2.49972
343.062	0.54493
343.276	2.51735
343.49	5.61806
343.703	2.34679
343.917	4.22957
344.131	4.19582
344.344	2.36531
344.558	2.43149
344.771	1.97412
344.985	4.33724
345.199	5.13528
345.412	3.49689
345.626	3.54153
345.839	1.16073
346.053	1.96191
346.266	2.00574
346.48	3.7676
346.693	3.54157
346.907	3.64461
347.12	2.06687
347.334	3.28659
347.547	3.49764
347.76	2.81848
347.974	4.34336
348.187	3.45797
348.401	2.74566
348.614	2.26085
348.827	2.64063
349.041	3.66961
349.254	1.22424
349.467	2.88674
349.681	1.69714
349.894	2.38535
350.107	4.39655
350.32	5.20951
350.534	1.4101
350.747	2.77159
350.96	1.94692
351.173	2.19735
351.386	2.45602
351.6	2.40512
351.813	2.30171
352.026	2.94751
352.239	1.52138
352.452	2.68398
352.665	4.10777
352.878	2.70229
353.092	5.28211
353.305	3.76666
353.518	3.12194
353.731	2.00399
353.944	3.97719
354.157	2.25981
354.37	2.07251
354.583	1.8677
354.796	1.27632
355.009	4.25805
355.222	2.99013
355.435	3.01844
355.647	4.19044
355.86	1.92646
356.073	2.80451
356.286	2.44466
356.499	3.73463
356.712	3.46643
356.925	3.15185
357.138	3.86598
357.35	1.81175
357.563	2.35747
357.776	2.90997
357.989	2.63855
358.201	3.41377
358.414	3.07779
358.627	3.97676
358.84	2.51106
359.052	1.57437
359.265	1.74194
359.478	3.74938
359.69	0.10437
359.903	3.56126
360.116	3.55125
360.328	0.96876
360.541	3.56411
360.753	1.83957
360.966	2.18145
361.179	2.18238
361.391	2.14589
361.604	1.65447
361.816	2.10753
362.029	2.01307
362.241	1.67052
362.454	2.06605
362.666	1.78306
362.879	2.66762
363.091	2.23256
363.304	1.81946
363.516	2.43252
363.728	1.35001
363.941	3.19029
364.153	2.18236
364.366	0.36725
364.578	1.50105
364.79	3.07437
365.003	2.54723
365.215	2.13792
365.427	3.08737
365.639	3.75319
365.852	2.80038
366.064	4.4252
366.276	2.14491
366.488	3.14683
366.701	2.18972
366.913	2.30384
367.125	2.48188
367.337	1.92734
367.549	2.00351
367.762	2.58539
367.974	2.64838
368.186	2.07143
368.398	3.54422
368.61	3.26898
368.822	3.40692
369.034	2.45003
369.246	3.30905
369.458	5.03315
369.67	1.62726
369.882	4.44167
370.094	0.70128
370.306	4.15691
370.518	2.20531
370.73	2.04368
370.942	1.81336
371.154	2.44392
371.366	2.08037
371.578	3.04343
371.79	2.02951
372.002	3.61875
372.214	4.37005
372.425	2.74908
372.637	4.01044
372.849	3.02885
373.061	0.46922
373.273	3.11128
373.484	3.05177
373.696	3.52971
373.908	0.41416
374.12	3.73856
374.331	3.16321
374.543	1.92681
374.755	1.63393
374.967	2.75515
375.178	3.43858
375.39	2.2945
375.602	2.60199
375.813	1.24852
376.025	1.29315
376.236	2.42994
376.448	2.70544
376.66	2.17898
376.871	2.09471
377.083	3.34462
377.294	3.62132
377.506	2.11153
377.717	3.82605
377.929	2.7133
378.14	1.85814
378.352	3.0663
378.563	3.03555
378.775	3.83124
378.986	1.75386
379.197	2.84333
379.409	2.06886
379.62	3.42382
379.832	2.67165
380.043	2.37443
380.254	2.82845
380.466	1.38065
380.677	5.23099
380.888	4.69662
381.1	5.16215
381.311	4.95772
381.522	2.59347
381.733	5.38262
381.945	2.3703
382.156	2.66608
382.367	2.08221
382.578	5.21092
382.789	5.16756
383.001	2.00932
383.212	4.06044
383.423	4.16543
383.634	3.69049
383.845	3.11394
384.056	2.15428
384.267	2.62685
384.478	2.44367
384.69	1.54217
384.901	3.13325
385.112	2.89587
385.323	4.05162
385.534	2.99525
385.745	2.80824
385.956	2.988
386.167	1.75381
386.378	3.18948
386.588	1.49622
386.799	1.88681
387.01	0.99147
387.221	3.43025
387.432	2.5233
387.643	4.46948
387.854	2.27115
388.065	2.2773
388.275	2.39767
388.486	2.27408
388.697	2.52111
388.908	2.37615
389.119	3.59846
389.329	4.29223
389.54	2.5602
389.751	2.89184
389.962	3.69722
390.172	2.90436
390.383	2.075
390.594	1.84334
390.804	1.92868
391.015	1.94302
391.226	2.61267
391.436	3.00807
391.647	2.83852
391.858	3.19664
392.068	0.98898
392.279	1.49963
392.489	2.50843
392.7	3.50453
392.91	1.50246
393.121	1.77517
393.331	2.88036
393.542	3.61436
393.752	3.08183
393.963	2.64778
394.173	2.53659
394.384	3.20687
394.594	2.41566
394.804	1.45757
395.015	2.6216
395.225	3.12877
395.436	1.50059
395.646	3.10001
395.856	1.84006
396.067	1.30215
396.277	3.43891
396.487	2.97541
396.697	2.84141
396.908	3.3381
397.118	3.28716
397.328	2.63514
397.538	3.48469
397.749	2.05861
397.959	3.39549
398.169	3.17778
398.379	1.43845
398.589	3.2196
398.8	2.65699
399.01	2.67984
399.22	2.21831
399.43	4.65088
399.64	2.31247
399.85	3.11029
400.06	2.57125
400.27	2.08177
400.48	2.50578
400.69	3.96252
400.9	2.1551
401.11	1.92813
401.32	3.30492
401.53	2.10176
401.74	4.06679
401.95	3.27829
402.16	1.76051
402.37	3.117
402.58	2.00205
402.79	3.21167
403	3.37558
403.209	2.07246
403.419	3.26753
403.629	2.13919
403.839	3.28959
404.049	3.2645
404.258	1.86038
404.468	1.73601
404.678	3.00558
404.888	3.21112
405.097	1.79462
405.307	2.43088
405.517	2.95574
405.727	2.75794
405.936	2.1898
406.146	2.73995
406.356	3.69474
406.565	2.59309
406.775	2.16957
406.984	2.29017
407.194	4.15876
407.404	2.67353
407.613	2.92368
407.823	3.38148
408.032	3.78834
408.242	3.60887
408.451	2.21513
408.661	2.5468
408.87	4.35174
409.08	2.32253
409.289	3.10935
409.499	2.78304
409.708	2.71565
409.918	0.99981
410.127	2.59612
410.336	4.00367
410.546	3.20166
410.755	2.38657
410.964	2.27233
411.174	2.10769
411.383	3.22108
411.592	3.17352
411.802	1.88578
412.011	3.64865
412.22	2.73221
412.429	4.103
412.639	3.90379
412.848	3.91261
413.057	4.20462
413.266	3.8159
413.475	2.94725
413.685	3.5516
413.894	3.51781
414.103	3.80677
414.312	3.3626
414.521	2.78416
414.73	2.92839
414.939	4.31933
415.148	3.25403
415.357	3.04772
415.566	2.41817
415.776	2.37307
415.985	2.22668
416.194	3.40053
416.403	3.98161
416.611	1.63544
416.82	2.16586
417.029	2.65649
417.238	2.03235
417.447	1.84873
417.656	2.08207
417.865	1.98187
418.074	2.09397
418.283	2.42548
418.492	3.00017
418.7	2.84907
418.909	3.48357
419.118	2.43838
419.327	2.63919
419.536	2.41518
419.744	1.90227
419.953	3.00938
420.162	2.97759
420.371	1.89288
420.579	1.81199
420.788	2.88628
420.997	2.84338
421.205	2.88679
421.414	2.56384
421.623	2.54625
421.831	2.09683
422.04	2.95567
422.249	2.07274
422.457	2.6592
422.666	2.06835
422.874	3.11004
423.083	3.03421
423.291	2.92442
423.5	2.61322
423.708	2.77456
423.917	3.25286
424.125	2.76603
424.334	2.37327
424.542	4.23187
424.751	3.44768
424.959	3.20644
425.167	3.4706
425.376	3.41266
