Data from WindowProjectSample_Transmission__75__00075.txt Node

Date: Sat May 03 17:59:14 EDT 2025
User: jessi
Spectrometer: SR400872
Trigger mode: 0
Integration Time (sec): 5.000010E-1
Scans to average: 6
Electric dark correction enabled: true
Nonlinearity correction enabled: true
Boxcar width: 0
XAxis mode: Wavelengths
Number of Pixels in Spectrum: 3648
>>>>>Begin Spectral Data<<<<<
184.909	3364.4444
185.132	4086.45244
185.355	-3939.28167
185.578	4314.20269
185.801	-376.93254
186.024	-5061.03039
186.247	1507.63154
186.47	559.58699
186.693	-32.26854
186.916	6572.5888
187.139	3238.13913
187.362	-1941.10989
187.585	5412.06209
187.808	29673.04083
188.031	97.66148
188.254	-4655.91572
188.476	795.48744
188.699	3199.79013
188.922	-212.57696
189.145	-6988.88099
189.368	-333.43728
189.591	-647.74835
189.813	-2919.01748
190.036	906.60142
190.259	-8357.57005
190.482	1285.52782
190.705	3889.4871
190.927	-1769.45491
191.15	-6521.32094
191.373	5923.66172
191.595	-1089.7642
191.818	2057.62382
192.041	-257.21321
192.263	1903.17318
192.486	-2382.16699
192.709	-22742.35678
192.931	1746.20055
193.154	-3671.29679
193.377	-2165.8967
193.599	4386.469
193.822	1564.95159
194.044	5618.79408
194.267	813.19128
194.489	-742.88768
194.712	2428.71577
194.934	8632.36677
195.157	-27587.89976
195.379	2096.64924
195.602	1646.77862
195.824	1446.14576
196.047	38430.26018
196.269	3188.24232
196.492	-1564.10676
196.714	-1227.811
196.936	1723.77821
197.159	-11752.96511
197.381	-373.53391
197.604	-3892.89785
197.826	-16387.14778
198.048	9628.4032
198.271	-8256.5217
198.493	4111.65444
198.715	3555.09004
198.938	-746.33926
199.16	-18275.43117
199.382	1183.56288
199.604	-1441.21124
199.827	-3493.84087
200.049	2168.42432
200.271	-6843.60422
200.493	-45436.76196
200.715	3799.41929
200.938	-2988.18467
201.16	-2653.03184
201.382	-1650.57912
201.604	-3322.91451
201.826	3390.27056
202.048	3416.85426
202.27	-1053.59447
202.492	-3288.02387
202.715	-1187.78295
202.937	-15982.32534
203.159	2551.22764
203.381	2036.082
203.603	-2879.81013
203.825	-702.52514
204.047	54703.93119
204.269	-1342.96332
204.491	-1174.98606
204.713	64410.87806
204.935	-3092.44134
205.156	-972.04529
205.378	-4197.37011
205.6	-1217.72572
205.822	2331.36447
206.044	-319.61964
206.266	6009.49924
206.488	875.86517
206.71	3332.04404
206.932	1622.36983
207.153	-1539.80378
207.375	-2667.47874
207.597	3724.14163
207.819	27288.73723
208.041	4008.02077
208.262	-1308.84044
208.484	-1074.54853
208.706	-1381.32512
208.927	2609.69963
209.149	4693.31533
209.371	-5104.67051
209.593	253.59748
209.814	-25495.42478
210.036	1998.09674
210.258	-753.6312
210.479	3742.32731
210.701	-3274.88061
210.922	-11649.27361
211.144	-750.07106
211.366	4851.87193
211.587	-1648.44381
211.809	-4903.32636
212.03	-902.56493
212.252	-515.24892
212.473	2989.96699
212.695	-755.6741
212.916	-799.19511
213.138	530.58123
213.359	-1343.89365
213.581	11644.55716
213.802	-1726.65232
214.024	-2344.77262
214.245	-6438.17813
214.466	-74.34957
214.688	-2828.44033
214.909	-19848.66235
215.131	-4725.76621
215.352	-2016.57361
215.573	11229.94585
215.795	1556.77857
216.016	6559.73642
216.237	-462.49902
216.459	5810.88305
216.68	-3551.89441
216.901	-2642.23495
217.122	-1782.99372
217.344	-6524.29771
217.565	-2766.52789
217.786	2159.49891
218.007	1518.86599
218.228	-639.11726
218.45	-4285.06607
218.671	1699.82738
218.892	3495.15628
219.113	1512.66724
219.334	546.42909
219.555	-6523.3892
219.776	10991.35227
219.997	3932.06161
220.219	1792.21175
220.44	1051.65118
220.661	906.29791
220.882	-2739.89489
221.103	-961.05082
221.324	2084.67304
221.545	3002.1216
221.766	-3436.10766
221.987	-476.6741
222.208	-10231.04634
222.429	169847.77244
222.65	-134.75729
222.87	-8992.16127
223.091	2771.50092
223.312	-1031.05123
223.533	2205.54918
223.754	2045.25949
223.975	2727.45977
224.196	-5323.01938
224.417	-2605.31991
224.637	6956.72725
224.858	1590.31589
225.079	1211.73586
225.3	1103.0445
225.521	4846.74453
225.741	878.04551
225.962	1092.68862
226.183	-472.81482
226.404	1404.51261
226.624	1073.06089
226.845	1592.64997
227.066	857.85492
227.286	534.78005
227.507	184.70604
227.728	179.54845
227.948	282.76326
228.169	92.92138
228.389	86.01944
228.61	45.94381
228.831	60.23004
229.051	5.20714
229.272	37.99774
229.492	49.00117
229.713	15.93288
229.933	37.42792
230.154	31.96962
230.374	53.63389
230.595	39.10755
230.815	27.32451
231.036	39.39366
231.256	-9.04535
231.477	71.46626
231.697	41.72612
231.917	41.95141
232.138	66.84361
232.358	126.65054
232.579	119.90116
232.799	20.15968
233.019	110.11827
233.24	132.69116
233.46	44.62614
233.68	77.35108
233.901	49.7648
234.121	31.93801
234.341	11.53127
234.561	-6.27284
234.782	26.17818
235.002	77.07304
235.222	-5.50255
235.442	68.81677
235.662	29.03774
235.883	75.16368
236.103	63.26615
236.323	49.884
236.543	35.56105
236.763	42.793
236.983	47.75864
237.203	50.10009
237.423	70.3606
237.643	101.7269
237.864	87.98051
238.084	25.48895
238.304	34.02563
238.524	53.04938
238.744	39.089
238.964	73.71265
239.184	63.246
239.404	70.66466
239.624	35.69313
239.843	66.91513
240.063	36.73582
240.283	23.13646
240.503	27.24963
240.723	27.78117
240.943	10.8656
241.163	21.38069
241.383	14.05255
241.603	8.03045
241.822	8.925
242.042	6.80104
242.262	8.09222
242.482	9.30608
242.702	11.7133
242.921	3.27332
243.141	7.99587
243.361	6.50871
243.581	9.9156
243.8	8.89318
244.02	5.61036
244.24	10.37759
244.459	10.30822
244.679	20.91911
244.899	13.50345
245.118	14.79122
245.338	12.27352
245.558	16.39808
245.777	9.35668
245.997	9.89195
246.216	10.49732
246.436	5.96498
246.655	4.33488
246.875	3.1848
247.094	6.4309
247.314	1.95853
247.533	3.74667
247.753	4.61509
247.972	3.75746
248.192	1.47313
248.411	1.86375
248.631	4.09475
248.85	4.75988
249.07	3.60934
249.289	6.75044
249.508	4.67336
249.728	8.20342
249.947	8.25787
250.166	8.51286
250.386	5.3338
250.605	8.07622
250.824	11.85607
251.044	8.80778
251.263	27.60637
251.482	14.0172
251.701	13.48713
251.921	-0.12172
252.14	4.17802
252.359	4.8879
252.578	10.95678
252.798	3.6639
253.017	9.28318
253.236	5.00709
253.455	6.67343
253.674	11.99848
253.893	5.51213
254.112	8.38687
254.331	12.65413
254.551	9.13327
254.77	4.9787
254.989	15.2434
255.208	13.90117
255.427	15.61213
255.646	13.24716
255.865	23.15647
256.084	8.84644
256.303	10.98456
256.522	14.83856
256.741	2.76106
256.96	3.67302
257.179	9.27584
257.397	11.91893
257.616	5.36395
257.835	6.53873
258.054	16.13523
258.273	9.95666
258.492	12.20132
258.711	7.46973
258.93	3.4961
259.148	4.23452
259.367	4.4834
259.586	5.92151
259.805	2.58883
260.023	5.28426
260.242	3.98018
260.461	2.98749
260.68	1.52971
260.898	4.63224
261.117	1.52684
261.336	1.09605
261.554	4.08752
261.773	3.98785
261.992	0.89626
262.21	4.09212
262.429	4.78289
262.648	7.55982
262.866	9.26156
263.085	5.57959
263.303	5.42495
263.522	9.74771
263.74	9.61465
263.959	15.96388
264.178	8.9611
264.396	7.43706
264.615	5.59629
264.833	12.8982
265.051	11.77776
265.27	10.84477
265.488	11.90899
265.707	7.732
265.925	11.68023
266.144	5.18454
266.362	6.90854
266.58	6.51888
266.799	5.27617
267.017	6.75254
267.235	5.88129
267.454	3.52977
267.672	2.48912
267.89	4.82759
268.109	4.94352
268.327	4.94154
268.545	1.31861
268.763	4.5527
268.982	1.78613
269.2	5.57136
269.418	3.45504
269.636	2.60992
269.854	4.28233
270.073	3.55767
270.291	1.88131
270.509	2.08389
270.727	4.80327
270.945	7.62124
271.163	8.13548
271.381	2.20422
271.599	3.16573
271.817	5.70047
272.036	1.89094
272.254	3.54599
272.472	2.77523
272.69	2.85234
272.908	2.90641
273.126	4.59893
273.344	5.51527
273.562	2.16369
273.779	2.73081
273.997	4.08658
274.215	4.49682
274.433	3.59067
274.651	4.97742
274.869	5.22432
275.087	3.36241
275.305	4.43078
275.523	2.61008
275.74	3.62926
275.958	5.98559
276.176	8.95657
276.394	2.32116
276.612	3.58208
276.829	3.54731
277.047	2.87813
277.265	3.43911
277.483	3.99942
277.7	4.78651
277.918	3.62599
278.136	6.92231
278.353	3.38168
278.571	2.05646
278.789	5.33843
279.006	1.26291
279.224	3.50754
279.442	5.67988
279.659	3.49917
279.877	2.78212
280.094	5.94958
280.312	1.38297
280.529	3.71631
280.747	1.24168
280.964	3.0766
281.182	6.24469
281.399	3.11458
281.617	4.21628
281.834	2.96094
282.052	2.45122
282.269	3.53944
282.487	2.86555
282.704	2.25994
282.921	2.52277
283.139	3.70216
283.356	4.62572
283.574	3.89107
283.791	2.06625
284.008	5.81806
284.226	3.04034
284.443	3.37683
284.66	4.63746
284.877	3.73983
285.095	2.4559
285.312	1.70726
285.529	1.223
285.746	0.97527
285.964	2.3
286.181	1.36023
286.398	2.19186
286.615	2.95843
286.832	2.8017
287.05	0.85526
287.267	1.85719
287.484	2.10399
287.701	2.98906
287.918	3.04772
288.135	2.97475
288.352	1.47243
288.569	1.59435
288.786	2.6336
289.003	2.07524
289.22	3.2943
289.437	2.08832
289.654	3.24512
289.871	3.37088
290.088	3.07544
290.305	2.4648
290.522	1.9749
290.739	2.42859
290.956	3.26966
291.173	4.14191
291.39	3.81257
291.607	2.63083
291.824	2.0468
292.04	1.11597
292.257	3.31339
292.474	3.66252
292.691	2.2595
292.908	1.14851
293.125	1.87822
293.341	1.05759
293.558	5.63867
293.775	2.30244
293.992	2.16094
294.208	0.83295
294.425	1.23393
294.642	1.9692
294.858	2.70609
295.075	0.78552
295.292	2.05045
295.508	2.68674
295.725	3.99608
295.942	2.03398
296.158	1.23789
296.375	2.29144
296.591	1.7333
296.808	1.96549
297.024	2.10635
297.241	2.37267
297.458	2.60706
297.674	0.22223
297.891	2.02719
298.107	1.46743
298.323	1.32341
298.54	2.94739
298.756	1.32708
298.973	0.5069
299.189	3.16922
299.406	1.23203
299.622	3.20153
299.838	3.18735
300.055	2.81063
300.271	0.84703
300.487	1.02438
300.704	1.10725
300.92	0.9142
301.136	4.16478
301.353	2.94058
301.569	2.28327
301.785	2.58467
302.001	3.05644
302.218	2.53721
302.434	2.39453
302.65	0.74407
302.866	1.67309
303.083	4.246
303.299	3.91467
303.515	1.91915
303.731	2.24517
303.947	0.71384
304.163	1.37937
304.379	2.33205
304.595	2.68083
304.812	1.58632
305.028	1.13545
305.244	1.93567
305.46	2.88881
305.676	2.97035
305.892	3.58108
306.108	2.24094
306.324	1.70141
306.54	4.13091
306.756	2.75064
306.972	2.70905
307.187	1.9899
307.403	3.79143
307.619	1.46773
307.835	3.35811
308.051	3.60623
308.267	0.7955
308.483	3.11459
308.699	2.73592
308.914	2.20891
309.13	1.86854
309.346	0.57137
309.562	1.04372
309.778	0.65156
309.993	2.61399
310.209	1.95505
310.425	0.78891
310.641	1.80086
310.856	0.8871
311.072	0.96366
311.288	1.79568
311.503	2.06378
311.719	0.41841
311.935	0.30287
312.15	2.46235
312.366	2.07309
312.581	2.58653
312.797	2.16018
313.013	2.65905
313.228	1.51522
313.444	2.22492
313.659	1.53723
313.875	2.59858
314.09	1.95051
314.306	3.22175
314.521	3.03631
314.737	2.86206
314.952	2.29212
315.168	1.83749
315.383	2.82048
315.599	1.64043
315.814	1.89601
316.029	2.843
316.245	0.74564
316.46	0.78012
316.675	3.2762
316.891	4.0785
317.106	4.9898
317.321	2.96727
317.537	2.6156
317.752	2.87504
317.967	2.87162
318.183	1.27849
318.398	1.84067
318.613	3.19751
318.828	3.41911
319.043	3.03669
319.259	1.52862
319.474	2.479
319.689	3.38036
319.904	0.44235
320.119	2.97284
320.334	2.72115
320.549	1.87041
320.765	3.25785
320.98	2.40572
321.195	3.13061
321.41	1.90896
321.625	2.83618
321.84	3.9868
322.055	4.14201
322.27	1.43842
322.485	1.15563
322.7	2.53462
322.915	3.33365
323.13	1.30315
323.345	3.69004
323.56	2.88216
323.775	2.93986
323.989	2.80651
324.204	2.32015
324.419	2.97928
324.634	0.95772
324.849	1.95097
325.064	4.4543
325.279	3.22636
325.493	2.97608
325.708	3.35566
325.923	1.29653
326.138	1.3444
326.352	3.86632
326.567	3.0236
326.782	1.75285
326.997	1.42283
327.211	2.65976
327.426	2.58623
327.641	1.62609
327.855	0.56784
328.07	2.76829
328.285	3.63941
328.499	1.95318
328.714	2.70353
328.928	3.23805
329.143	2.21078
329.358	3.18744
329.572	3.33217
329.787	3.59245
330.001	4.72626
330.216	0.80161
330.43	3.83335
330.645	3.8697
330.859	3.22418
331.074	1.57227
331.288	2.55014
331.503	3.50394
331.717	1.21981
331.931	2.1137
332.146	2.05516
332.36	4.01421
332.575	2.72881
332.789	2.28586
333.003	2.08175
333.218	2.79029
333.432	1.92571
333.646	2.80933
333.86	3.69839
334.075	4.02882
334.289	1.78446
334.503	1.60333
334.717	2.75788
334.932	2.80649
335.146	3.58617
335.36	2.13931
335.574	3.04261
335.788	2.55626
336.003	3.41876
336.217	2.77578
336.431	2.86572
336.645	1.59866
336.859	0.98761
337.073	1.92232
337.287	2.67475
337.501	1.15493
337.715	2.44021
337.929	2.75908
338.143	1.23332
338.357	2.27619
338.571	1.15091
338.785	2.74959
338.999	1.8097
339.213	2.01693
339.427	0.82022
339.641	3.18639
339.855	2.02005
340.069	1.8841
340.283	3.07377
340.497	3.97197
340.711	2.65461
340.924	1.71652
341.138	1.22262
341.352	1.01782
341.566	2.45821
341.78	0.52917
341.993	1.68323
342.207	1.20956
342.421	2.40115
342.635	2.21103
342.848	1.54543
343.062	0.16625
343.276	1.63311
343.49	4.37611
343.703	1.70364
343.917	2.97672
344.131	3.02987
344.344	1.6236
344.558	1.68236
344.771	1.35802
344.985	3.39702
345.199	3.79475
345.412	2.30133
345.626	2.38388
345.839	0.6647
346.053	1.15356
346.266	1.12246
346.48	2.92404
346.693	2.23907
346.907	2.65876
347.12	1.33309
347.334	2.43849
347.547	2.58571
347.76	1.90969
347.974	3.20232
348.187	2.16
348.401	1.72979
348.614	1.64715
348.827	1.66849
349.041	2.64879
349.254	0.66764
349.467	1.98471
349.681	0.87263
349.894	1.43095
350.107	3.23553
350.32	3.49947
350.534	0.6734
350.747	1.63676
350.96	1.26999
351.173	1.34424
351.386	1.84128
351.6	1.71389
351.813	1.38928
352.026	1.97558
352.239	0.80019
352.452	1.6058
352.665	2.76068
352.878	1.68061
353.092	4.15555
353.305	2.60274
353.518	2.16986
353.731	1.20344
353.944	3.10846
354.157	1.31803
354.37	1.06416
354.583	1.05246
354.796	0.51368
355.009	2.94288
355.222	1.98269
355.435	2.09177
355.647	2.87576
355.86	1.04538
356.073	1.92613
356.286	1.41007
356.499	2.66204
356.712	1.96935
356.925	2.17942
357.138	2.64725
357.35	0.91965
357.563	1.59141
357.776	1.86187
357.989	1.53922
358.201	2.3113
358.414	1.7595
358.627	2.66852
358.84	1.65552
359.052	1.03876
359.265	0.93901
359.478	2.6867
359.69	-0.49203
359.903	2.1698
360.116	2.48048
360.328	0.39021
360.541	2.49088
360.753	0.78921
360.966	1.20568
361.179	1.32878
361.391	1.25219
361.604	0.87547
361.816	1.18014
362.029	1.04234
362.241	0.94345
362.454	1.20069
362.666	0.81606
362.879	1.52609
363.091	1.2835
363.304	0.94992
363.516	1.53883
363.728	0.5377
363.941	2.11545
364.153	1.14433
364.366	0.08274
364.578	0.82275
364.79	1.88877
365.003	1.58507
365.215	1.38293
365.427	1.97952
365.639	2.63459
365.852	1.83446
366.064	3.2606
366.276	1.16588
366.488	2.07609
366.701	1.20517
366.913	1.40746
367.125	1.47099
367.337	1.13825
367.549	1.30879
367.762	1.71644
367.974	1.72611
368.186	1.08042
368.398	2.46969
368.61	2.10365
368.822	2.05169
369.034	1.65396
369.246	2.40355
369.458	3.51805
369.67	0.79164
369.882	3.11006
370.094	0.02074
370.306	3.06991
370.518	1.27088
370.73	0.92237
370.942	1.11611
371.154	1.48706
371.366	1.12122
371.578	1.861
371.79	0.9724
372.002	2.63657
372.214	2.97532
372.425	1.78509
372.637	2.7498
372.849	1.63747
373.061	-0.15647
373.273	1.96464
373.484	2.21986
373.696	2.24832
373.908	-0.02981
374.12	2.50165
374.331	2.15586
374.543	0.94362
374.755	0.87103
374.967	1.80004
375.178	2.48663
375.39	1.50501
375.602	1.87567
375.813	0.6815
376.025	0.7122
376.236	1.61297
376.448	1.88234
376.66	1.28663
376.871	1.42698
377.083	2.37588
377.294	2.64821
377.506	1.35483
377.717	2.58959
377.929	1.82977
378.14	1.03655
378.352	2.18252
378.563	2.0397
378.775	2.63313
378.986	0.97871
379.197	1.81082
379.409	1.24211
379.62	2.36024
379.832	1.9314
380.043	1.48727
380.254	1.90388
380.466	0.84234
380.677	3.72809
380.888	3.24087
381.1	3.77489
381.311	3.7159
381.522	1.84165
381.733	3.94707
381.945	1.46308
382.156	1.72329
382.367	1.51088
382.578	4.07411
382.789	4.02582
383.001	1.51195
383.212	2.82689
383.423	3.12086
383.634	2.59384
383.845	2.15828
384.056	1.46203
384.267	1.84699
384.478	1.71481
384.69	0.92388
384.901	2.18618
385.112	2.09614
385.323	2.91717
385.534	2.16258
385.745	2.24471
385.956	2.13852
386.167	1.05108
386.378	2.20527
386.588	1.19499
386.799	1.14667
387.01	0.69435
387.221	2.57413
387.432	1.99793
387.643	3.44382
387.854	1.69423
388.065	1.73113
388.275	1.76825
388.486	1.49034
388.697	1.98608
388.908	1.67503
389.119	2.92187
389.329	3.17069
389.54	1.94376
389.751	2.34897
389.962	2.88535
390.172	2.09709
390.383	1.70223
390.594	1.53906
390.804	1.36031
391.015	1.68635
391.226	2.08769
391.436	2.57084
391.647	2.40571
391.858	2.42998
392.068	0.88829
392.279	1.3932
392.489	2.28557
392.7	2.82219
392.91	1.47285
393.121	1.60877
393.331	2.44115
393.542	2.87423
393.752	2.72855
393.963	2.4878
394.173	2.39035
394.384	2.68649
394.594	2.20992
394.804	1.39033
395.015	2.13034
395.225	2.66023
395.436	1.50502
395.646	2.62884
395.856	1.96597
396.067	1.24069
396.277	2.95408
396.487	2.58261
396.697	2.38842
396.908	2.932
397.118	2.69398
397.328	2.43536
397.538	2.93278
397.749	1.99388
397.959	2.99977
398.169	2.78544
398.379	1.37361
398.589	2.61414
398.8	2.5759
399.01	2.51591
399.22	2.16426
399.43	4.01468
399.64	2.23343
399.85	2.7831
400.06	2.36599
400.27	1.87899
400.48	2.32499
400.69	3.456
400.9	2.10439
401.11	1.91771
401.32	2.9986
401.53	2.13286
401.74	3.51639
401.95	2.77944
402.16	2.04212
402.37	2.82841
402.58	2.06289
402.79	3.04575
403	3.02719
403.209	2.00155
403.419	3.13869
403.629	1.99389
403.839	3.18524
404.049	3.23012
404.258	2.09248
404.468	2.16255
404.678	3.11427
404.888	3.38443
405.097	2.55672
405.307	2.53695
405.517	2.95984
405.727	3.06372
405.936	2.40049
406.146	2.96674
406.356	3.49802
406.565	2.59229
406.775	2.27762
406.984	2.30982
407.194	4.2167
407.404	2.74414
407.613	2.94181
407.823	3.39642
408.032	3.71817
408.242	3.35874
408.451	2.49959
408.661	2.80725
408.87	4.10458
409.08	2.21747
409.289	3.03132
409.499	2.77419
409.708	2.76425
409.918	1.32996
410.127	3.00733
410.336	3.96607
410.546	3.37844
410.755	2.48572
410.964	2.54687
411.174	2.14224
411.383	3.17211
411.592	3.02873
411.802	2.20811
412.011	3.27828
412.22	2.76066
412.429	3.71348
412.639	3.81594
412.848	3.70292
413.057	4.16161
413.266	3.64396
413.475	2.96142
413.685	3.20135
413.894	3.4905
414.103	3.66422
414.312	3.42515
414.521	2.85286
414.73	3.14816
414.939	4.39393
415.148	3.25159
415.357	3.23649
415.566	3.02175
415.776	2.76368
415.985	2.75823
416.194	3.68136
416.403	4.36159
416.611	2.25882
416.82	2.83042
417.029	3.2399
417.238	2.65821
417.447	2.60429
417.656	3.05207
417.865	2.82151
418.074	3.25315
418.283	3.43242
418.492	4.47348
418.7	4.28153
418.909	5.46209
419.118	4.07783
419.327	4.60433
419.536	4.32738
419.744	4.07908
419.953	5.474
420.162	5.45804
420.371	4.36213
420.579	4.64508
420.788	5.70821
420.997	5.77167
421.205	5.72341
421.414	5.48848
421.623	5.69261
421.831	5.2112
422.04	5.85496
422.249	4.92248
422.457	5.46515
422.666	4.77292
422.874	5.86275
423.083	5.88173
423.291	5.6413
423.5	5.40298
423.708	5.66926
423.917	6.30582
424.125	5.50822
424.334	5.25407
424.542	7.36134
424.751	6.55852
424.959	6.0477
425.167	6.62615
425.376	6.3627
425.584	5.50603
425.793	5.64526
426.001	4.47697
426.209	5.24258
426.418	4.13609
426.626	3.82067
426.834	3.64587
427.042	3.89823
