Data from WindowProjectSample_Transmission__38__00038.txt Node

Date: Sat May 03 15:48:51 EDT 2025
User: jessi
Spectrometer: SR400872
Trigger mode: 0
Integration Time (sec): 5.000010E-1
Scans to average: 6
Electric dark correction enabled: true
Nonlinearity correction enabled: true
Boxcar width: 0
XAxis mode: Wavelengths
Number of Pixels in Spectrum: 3648
>>>>>Begin Spectral Data<<<<<
184.909	11859.23813
185.132	1389.89758
185.355	-7006.13882
185.578	2370.13388
185.801	665.71902
186.024	-20454.31011
186.247	2549.98687
186.47	5016.25547
186.693	-1191.99552
186.916	1735.28989
187.139	5620.25876
187.362	3765.66788
187.585	20804.78692
187.808	1189.51035
188.031	-62.25894
188.254	2225.88046
188.476	-4303.65013
188.699	-4205.54292
188.922	-368.42325
189.145	-17237.82496
189.368	-299.78677
189.591	-701.54388
189.813	2138.83087
190.036	2305.08569
190.259	9118.5915
190.482	5435.55952
190.705	5530.67252
190.927	-1053.08887
191.15	2127.45897
191.373	754.96125
191.595	-1506.47834
191.818	1503.8263
192.041	2795.05429
192.263	10719.28845
192.486	-1267.38579
192.709	-2984.37454
192.931	19859.85181
193.154	12131.28247
193.377	3663.32407
193.599	-12036.0606
193.822	866.3443
194.044	-1950.98428
194.267	478.21836
194.489	-201.87117
194.712	2448.17615
194.934	3043.55009
195.157	483.43414
195.379	618.38276
195.602	2753.38928
195.824	1285.68173
196.047	-5177.76804
196.269	-7685.49176
196.492	-1796.48322
196.714	-5587.77419
196.936	19758.87166
197.159	97742.51231
197.381	-29466.75389
197.604	-856.83565
197.826	6633.01741
198.048	-3144.62994
198.271	7332.3708
198.493	2536.51535
198.715	-21839.03457
198.938	-505.96645
199.16	74887.16512
199.382	1659.62078
199.604	1218.49226
199.827	23718.23496
200.049	997.55333
200.271	1453.26688
200.493	13274.04057
200.715	14469.7175
200.938	-2614.65229
201.16	-5184.66418
201.382	1854.6646
201.604	-1028.73909
201.826	2746.59027
202.048	844.91732
202.27	2420.34203
202.492	-2930.22875
202.715	10534.58362
202.937	15871.13832
203.159	1812.63865
203.381	-2270.03801
203.603	3274.82516
203.825	-1173.63406
204.047	5860.57609
204.269	-1076.87355
204.491	-1531.22438
204.713	8779.30515
204.935	-1856.23728
205.156	5204.13077
205.378	1395.68687
205.6	-1501.12639
205.822	2019.9954
206.044	-703.04808
206.266	-14344.38164
206.488	2076.71293
206.71	3662.81027
206.932	14994.2881
207.153	-2716.40765
207.375	2563.58962
207.597	10950.74558
207.819	3151.10002
208.041	1783.93096
208.262	677.59071
208.484	-1075.74716
208.706	658.95418
208.927	1156.90326
209.149	-837.31186
209.371	-11824.03452
209.593	524.79159
209.814	3581.97972
210.036	1557.62242
210.258	-9496.81145
210.479	-931.31599
210.701	652.92207
210.922	2431.60467
211.144	2566.20538
211.366	-8952.41694
211.587	-568.3471
211.809	-3977.94122
212.03	-509.06843
212.252	-11562.3566
212.473	1365.87226
212.695	-498.98065
212.916	-665.25298
213.138	-2407.26282
213.359	-41608.2356
213.581	27081.60639
213.802	-512.59414
214.024	6771.32355
214.245	-9835.32965
214.466	-165.76543
214.688	8521.76523
214.909	-3803.08507
215.131	5101.76626
215.352	-1531.13493
215.573	12735.85565
215.795	1731.87127
216.016	2636.2173
216.237	-862.60337
216.459	2081.36822
216.68	7384.08753
216.901	9410.19555
217.122	-993.06027
217.344	3217.795
217.565	-5787.66788
217.786	2198.54144
218.007	948.54857
218.228	-2015.78002
218.45	11253.63506
218.671	-1778.90894
218.892	1299.13641
219.113	2397.09845
219.334	-379.97517
219.555	-1715.74906
219.776	991.83932
219.997	4206.25405
220.219	1622.6137
220.44	2488.76982
220.661	2343.3287
220.882	-20866.47113
221.103	601.87319
221.324	1273.15864
221.545	4108.29157
221.766	-5707.51866
221.987	-1203.74488
222.208	-1500.10497
222.429	3469.05451
222.65	-327.29509
222.87	-2155.46819
223.091	-21335.96342
223.312	1004.41807
223.533	-3724.51545
223.754	1916.48141
223.975	1229.98854
224.196	-1746.85505
224.417	-3921.0184
224.637	-4641.23436
224.858	78.57237
225.079	816.19643
225.3	1084.67018
225.521	2743.99027
225.741	-2475.2832
225.962	819.56803
226.183	253.18552
226.404	690.76496
226.624	857.00441
226.845	427.45393
227.066	421.00055
227.286	260.19217
227.507	136.44684
227.728	107.22271
227.948	165.09351
228.169	46.37712
228.389	49.73819
228.61	33.57395
228.831	37.88211
229.051	4.81565
229.272	24.33806
229.492	32.38436
229.713	9.07782
229.933	25.83204
230.154	21.06345
230.374	35.30255
230.595	26.24288
230.815	16.1238
231.036	25.23671
231.256	-5.75104
231.477	46.58141
231.697	23.992
231.917	30.39789
232.138	39.50118
232.358	83.98911
232.579	71.97717
232.799	8.70337
233.019	69.63848
233.24	88.19991
233.46	27.97763
233.68	50.54874
233.901	34.08456
234.121	20.01176
234.341	7.08347
234.561	-1.87609
234.782	17.35022
235.002	53.05478
235.222	-1.19537
235.442	45.90313
235.662	23.92838
235.883	49.53488
236.103	42.19517
236.323	28.20956
236.543	22.76633
236.763	30.02069
236.983	30.04096
237.203	32.78018
237.423	48.73497
237.643	68.74994
237.864	58.93257
238.084	12.23492
238.304	19.40695
238.524	36.05254
238.744	27.22674
238.964	49.3498
239.184	47.56503
239.404	50.59401
239.624	26.56233
239.843	47.31248
240.063	26.97002
240.283	17.84191
240.503	19.1354
240.723	18.87168
240.943	10.17024
241.163	14.80685
241.383	10.67233
241.603	5.59233
241.822	7.0696
242.042	4.63502
242.262	5.94482
242.482	7.29896
242.702	8.73596
242.921	3.06393
243.141	5.98835
243.361	4.94192
243.581	7.61755
243.8	6.60425
244.02	3.66393
244.24	7.89385
244.459	8.23623
244.679	14.12319
244.899	9.82546
245.118	10.32862
245.338	9.31153
245.558	12.43009
245.777	6.98927
245.997	7.75774
246.216	8.64566
246.436	4.1499
246.655	3.60719
246.875	2.88562
247.094	4.95666
247.314	1.64842
247.533	2.77913
247.753	3.62808
247.972	2.7974
248.192	0.94179
248.411	1.79603
248.631	3.54817
248.85	3.96515
249.07	3.1511
249.289	5.15686
249.508	4.03136
249.728	6.13497
249.947	6.59808
250.166	7.21106
250.386	4.13768
250.605	5.57432
250.824	8.83902
251.044	7.11392
251.263	22.19702
251.482	10.81288
251.701	10.36372
251.921	-0.13698
252.14	2.94801
252.359	3.61631
252.578	8.77983
252.798	2.98212
253.017	7.93117
253.236	3.95684
253.455	4.77233
253.674	9.24427
253.893	4.52691
254.112	6.86817
254.331	9.24437
254.551	7.9811
254.77	3.60899
254.989	12.17694
255.208	9.87649
255.427	12.9928
255.646	11.01092
255.865	19.01736
256.084	6.78864
256.303	9.17005
256.522	12.16453
256.741	2.52951
256.96	3.3991
257.179	7.1111
257.397	8.95557
257.616	5.0287
257.835	5.37155
258.054	13.16798
258.273	8.03774
258.492	9.75213
258.711	6.04482
258.93	2.17324
259.148	3.66983
259.367	3.7256
259.586	4.83465
259.805	2.07982
260.023	4.58399
260.242	3.34788
260.461	2.44578
260.68	1.27956
260.898	3.90257
261.117	1.25646
261.336	0.93518
261.554	3.21511
261.773	3.0277
261.992	0.52308
262.21	2.64876
262.429	3.90512
262.648	6.51241
262.866	7.56599
263.085	4.88142
263.303	4.48655
263.522	7.62019
263.74	7.53986
263.959	13.39281
264.178	6.81392
264.396	6.03629
264.615	4.41181
264.833	10.68278
265.051	9.17224
265.27	9.04837
265.488	10.00845
265.707	6.30333
265.925	9.85702
266.144	4.70114
266.362	5.54004
266.58	5.28181
266.799	4.31614
267.017	5.2012
267.235	4.7106
267.454	3.09435
267.672	1.70889
267.89	3.77316
268.109	4.32762
268.327	3.81027
268.545	0.87538
268.763	3.58766
268.982	1.23558
269.2	4.81509
269.418	2.69693
269.636	2.08323
269.854	3.90035
270.073	3.28204
270.291	1.69381
270.509	2.05656
270.727	3.74759
270.945	6.61656
271.163	4.93074
271.381	1.46661
271.599	2.62114
271.817	4.85148
272.036	1.67105
272.254	2.76666
272.472	2.02822
272.69	2.03804
272.908	2.32255
273.126	3.8634
273.344	4.74671
273.562	1.67531
273.779	2.4018
273.997	3.54738
274.215	3.78147
274.433	2.62851
274.651	4.18619
274.869	4.25561
275.087	2.31592
275.305	3.90012
275.523	2.26989
275.74	3.09556
275.958	5.0219
276.176	7.21576
276.394	2.39348
276.612	2.97986
276.829	2.80839
277.047	2.46045
277.265	2.83902
277.483	3.35595
277.7	4.07829
277.918	3.2149
278.136	5.4639
278.353	2.71608
278.571	1.62491
278.789	4.67678
279.006	1.23833
279.224	2.75326
279.442	4.69829
279.659	3.11075
279.877	2.39149
280.094	5.21386
280.312	0.87579
280.529	3.29002
280.747	0.97197
280.964	2.24028
281.182	5.74112
281.399	2.32937
281.617	3.44354
281.834	2.30374
282.052	2.02369
282.269	2.68351
282.487	2.47852
282.704	1.77384
282.921	2.22199
283.139	3.29111
283.356	3.93318
283.574	3.24013
283.791	1.78691
284.008	4.93094
284.226	2.78596
284.443	2.8741
284.66	3.73263
284.877	2.99494
285.095	2.07765
285.312	1.30059
285.529	1.04263
285.746	0.68514
285.964	1.91269
286.181	1.26597
286.398	1.9072
286.615	2.4956
286.832	2.50258
287.05	0.69256
287.267	1.57167
287.484	1.87781
287.701	2.55951
287.918	2.41919
288.135	2.61566
288.352	1.35855
288.569	1.31087
288.786	2.31924
289.003	1.93956
289.22	2.69265
289.437	1.82024
289.654	2.81614
289.871	3.07145
290.088	2.77058
290.305	2.08861
290.522	1.70719
290.739	1.93953
290.956	2.92598
291.173	3.41481
291.39	3.21074
291.607	2.30715
291.824	1.79575
292.04	1.10704
292.257	2.777
292.474	3.12508
292.691	1.74134
292.908	1.02615
293.125	1.98413
293.341	1.04624
293.558	5.10019
293.775	1.86179
293.992	1.85325
294.208	0.67529
294.425	1.35183
294.642	1.70818
294.858	2.69142
295.075	0.68659
295.292	1.91204
295.508	2.38066
295.725	3.65932
295.942	1.8844
296.158	1.47003
296.375	2.25147
296.591	1.58723
296.808	2.06147
297.024	2.38353
297.241	2.39061
297.458	2.81316
297.674	0.79773
297.891	2.25667
298.107	2.23904
298.323	1.61023
298.54	3.45888
298.756	2.03009
298.973	1.23532
299.189	3.74365
299.406	2.12391
299.622	3.66549
299.838	3.65494
300.055	3.35907
300.271	1.78393
300.487	1.75208
300.704	2.29136
300.92	1.91776
301.136	5.09074
301.353	3.46127
301.569	2.89753
301.785	3.16827
302.001	3.69203
302.218	3.37193
302.434	3.5325
302.65	2.08707
302.866	2.79455
303.083	5.135
303.299	5.30781
303.515	3.44197
303.731	4.04315
303.947	2.50957
304.163	2.86265
304.379	3.49261
304.595	3.70443
304.812	2.87806
305.028	2.83702
305.244	3.15158
305.46	3.94091
305.676	4.43513
305.892	4.8522
306.108	4.21524
306.324	3.30358
306.54	5.31215
306.756	3.62935
306.972	3.79865
307.187	3.69234
307.403	4.78146
307.619	2.90556
307.835	4.46134
308.051	4.76191
308.267	2.69977
308.483	5.03078
308.699	4.43221
308.914	4.01247
309.13	3.79047
309.346	2.85643
309.562	3.21997
309.778	2.87927
309.993	4.37596
310.209	4.53887
310.425	3.05206
310.641	4.10268
310.856	3.38349
311.072	3.41092
311.288	4.02183
311.503	4.60789
311.719	2.80925
311.935	3.07669
312.15	4.85743
312.366	4.70819
312.581	4.70562
312.797	4.5596
313.013	4.87846
313.228	3.80596
313.444	3.76812
313.659	3.47267
313.875	4.48733
314.09	4.01642
314.306	5.0485
314.521	4.7948
314.737	4.85437
314.952	4.09086
315.168	4.3271
315.383	4.82405
315.599	3.67032
315.814	3.93865
316.029	4.74489
316.245	3.28943
316.46	2.30246
316.675	4.99116
316.891	5.76685
317.106	6.59309
317.321	4.18511
317.537	4.59549
317.752	5.0298
317.967	4.9504
318.183	3.62777
318.398	3.78016
318.613	4.8214
318.828	5.34433
319.043	4.60394
319.259	3.86815
319.474	4.22419
319.689	5.07413
319.904	2.36144
320.119	5.33977
320.334	4.26712
320.549	4.04119
320.765	5.12523
320.98	4.58799
321.195	4.2011
321.41	3.94004
321.625	4.72867
321.84	5.60731
322.055	5.66902
322.27	3.31002
322.485	2.77758
322.7	4.39177
322.915	4.9444
323.13	3.78742
323.345	5.81784
323.56	5.10731
323.775	5.06138
323.989	4.83139
324.204	4.1135
324.419	5.2183
324.634	3.20517
324.849	4.32303
325.064	6.88374
325.279	5.6147
325.493	4.71196
325.708	5.1107
325.923	3.66696
326.138	4.37839
326.352	5.6368
326.567	4.96929
326.782	3.87137
326.997	4.03619
327.211	4.73226
327.426	4.34452
327.641	4.22629
327.855	3.03193
328.07	5.13914
328.285	6.18758
328.499	3.99855
328.714	4.5073
328.928	4.56013
329.143	4.53717
329.358	5.40422
329.572	5.22285
329.787	5.97074
330.001	6.70916
330.216	3.07245
330.43	6.29759
330.645	5.35019
330.859	4.80271
331.074	3.21824
331.288	4.5208
331.503	5.9912
331.717	3.20411
331.931	4.3414
332.146	4.46457
332.36	6.46583
332.575	4.84202
332.789	4.35249
333.003	4.5714
333.218	5.08024
333.432	4.30032
333.646	5.28963
333.86	6.29708
334.075	5.99972
334.289	3.77648
334.503	3.28515
334.717	5.21527
334.932	4.76685
335.146	4.89161
335.36	3.42057
335.574	4.96711
335.788	4.42029
336.003	5.19438
336.217	5.65042
336.431	4.68717
336.645	3.90389
336.859	3.80839
337.073	4.43102
337.287	4.83498
337.501	3.44604
337.715	5.23366
337.929	5.12456
338.143	3.69363
338.357	4.34486
338.571	4.24467
338.785	5.55508
338.999	4.11997
339.213	4.234
339.427	3.62741
339.641	5.63285
339.855	3.99669
340.069	3.82148
340.283	5.45427
340.497	6.02211
340.711	4.96124
340.924	4.88541
341.138	3.72768
341.352	3.14066
341.566	4.86087
341.78	3.48129
341.993	3.96883
342.207	3.76496
342.421	5.0327
342.635	4.71811
342.848	4.28136
343.062	2.37851
343.276	4.1507
343.49	6.41574
343.703	3.94006
343.917	5.40021
344.131	5.5095
344.344	3.80877
344.558	4.00807
344.771	3.49152
344.985	5.69297
345.199	6.29652
345.412	4.8796
345.626	5.32286
345.839	3.29054
346.053	3.64249
346.266	3.80082
346.48	5.10105
346.693	5.05863
346.907	5.04673
347.12	3.64775
347.334	4.48956
347.547	4.91609
347.76	4.5803
347.974	5.4647
348.187	4.55142
348.401	4.24036
348.614	3.54454
348.827	4.47369
349.041	4.83883
349.254	3.07692
349.467	4.32021
349.681	3.74442
349.894	3.63257
350.107	5.57042
350.32	6.37718
350.534	3.55038
350.747	4.39266
350.96	3.85934
351.173	4.07312
351.386	4.38465
351.6	4.12937
351.813	4.37453
352.026	4.3845
352.239	3.84725
352.452	4.18039
352.665	5.79187
352.878	4.17939
353.092	6.65088
353.305	5.13611
353.518	4.80274
353.731	3.74507
353.944	5.68507
354.157	4.26541
354.37	4.2583
354.583	3.46559
354.796	3.94465
355.009	5.49458
355.222	4.74824
355.435	4.69222
355.647	5.9458
355.86	4.25298
356.073	5.01618
356.286	4.37799
356.499	5.6247
356.712	5.57792
356.925	5.42216
357.138	5.72088
357.35	4.30274
357.563	4.62469
357.776	5.13509
357.989	5.1752
358.201	5.6118
358.414	5.38155
358.627	6.39151
358.84	5.08632
359.052	4.22972
359.265	4.51991
359.478	5.83068
359.69	3.02442
359.903	5.96723
360.116	6.21845
360.328	4.16563
360.541	6.01099
360.753	5.04109
360.966	5.22246
361.179	5.51268
361.391	5.34334
361.604	4.93132
361.816	5.32337
362.029	5.4026
362.241	4.96514
362.454	5.55393
362.666	5.01232
362.879	6.08066
363.091	5.3768
363.304	5.13222
363.516	5.31495
363.728	4.66093
363.941	5.91236
364.153	5.83485
364.366	4.16937
364.578	4.71896
364.79	5.84823
365.003	5.86085
365.215	5.2105
365.427	6.0924
365.639	6.50286
365.852	5.87056
366.064	6.89334
366.276	5.43185
366.488	5.87244
366.701	5.7318
366.913	5.32528
367.125	5.80847
367.337	5.2973
367.549	5.35966
367.762	5.58547
367.974	5.69977
368.186	5.66221
368.398	6.50028
368.61	6.06358
368.822	6.30062
369.034	5.42887
369.246	6.88564
369.458	8.04543
369.67	5.16778
369.882	7.10939
370.094	4.48093
370.306	7.09271
370.518	5.74039
370.73	5.70439
370.942	5.67593
371.154	6.19607
371.366	6.16702
371.578	6.78938
371.79	6.48675
372.002	7.2909
372.214	8.4173
372.425	6.24699
372.637	7.8398
372.849	6.73408
373.061	4.83876
373.273	6.85043
373.484	6.91116
373.696	7.16957
373.908	4.94261
374.12	7.3928
374.331	7.24387
374.543	5.92027
374.755	5.95988
374.967	6.59013
375.178	7.74353
375.39	6.60502
375.602	6.97301
375.813	5.96102
376.025	6.32024
376.236	7.33513
376.448	7.44254
376.66	7.20124
376.871	7.40922
377.083	7.99716
377.294	8.91398
377.506	7.09446
377.717	8.50694
377.929	7.74761
378.14	7.52446
378.352	8.00297
378.563	8.47351
378.775	8.72966
378.986	7.00344
379.197	7.73021
379.409	7.01797
379.62	8.17355
379.832	8.0882
380.043	7.59187
380.254	8.15532
380.466	7.20127
380.677	10.11592
380.888	9.54401
381.1	10.19054
381.311	10.24709
381.522	8.76345
381.733	10.33329
381.945	8.33773
382.156	7.92722
382.367	8.36375
382.578	10.5288
382.789	10.75191
383.001	7.92503
383.212	10.04641
383.423	10.22654
383.634	9.41929
383.845	9.68067
384.056	8.69794
384.267	8.98237
384.478	9.05744
384.69	8.24868
384.901	9.78011
385.112	9.4489
385.323	10.54803
385.534	9.62246
385.745	10.03504
385.956	9.65946
386.167	8.74871
386.378	9.91518
386.588	9.24091
386.799	8.90015
387.01	8.5507
387.221	10.4529
387.432	9.8697
387.643	11.06233
387.854	9.78561
388.065	9.58362
388.275	9.79041
388.486	9.40874
388.697	10.05191
388.908	9.70943
389.119	10.94076
389.329	11.10836
389.54	10.33964
389.751	10.7728
389.962	11.34209
390.172	10.38468
390.383	10.64494
390.594	10.20545
390.804	10.12162
391.015	10.39429
391.226	11.00315
391.436	11.61
391.647	11.2151
391.858	11.57768
392.068	9.97981
392.279	10.5166
392.489	11.66499
392.7	11.80216
392.91	10.9907
393.121	10.77544
393.331	11.95399
393.542	12.30382
393.752	12.27369
393.963	12.03976
394.173	12.2243
394.384	12.18844
394.594	11.90791
394.804	10.99529
395.015	11.83572
395.225	12.33078
395.436	11.19083
395.646	12.2803
395.856	11.78154
396.067	10.91851
396.277	12.65518
396.487	12.38826
396.697	12.7871
396.908	12.73657
397.118	12.68004
397.328	12.46321
397.538	13.09855
397.749	12.18604
397.959	13.28641
398.169	13.03645
398.379	11.8351
398.589	12.81349
398.8	12.96513
399.01	13.01528
399.22	12.54562
399.43	14.19387
399.64	12.83547
399.85	13.33035
400.06	13.21681
400.27	12.76453
400.48	13.02326
400.69	13.80741
400.9	12.94337
401.11	12.43544
401.32	13.74668
401.53	12.90582
401.74	14.33018
401.95	13.48635
402.16	13.26113
402.37	13.65733
402.58	13.25853
402.79	13.91999
403	14.16029
403.209	13.24471
403.419	14.51092
403.629	13.37318
403.839	14.64667
404.049	14.50486
404.258	13.72143
404.468	13.81672
404.678	14.68888
404.888	15.06684
405.097	14.37751
405.307	14.1673
405.517	14.94527
405.727	14.89153
405.936	14.00857
406.146	14.61007
406.356	15.53585
406.565	14.36755
406.775	14.26918
406.984	14.20232
407.194	15.95441
407.404	14.50447
407.613	15.20846
407.823	15.19488
408.032	15.74508
408.242	15.26476
408.451	14.60527
408.661	14.98838
408.87	16.03828
409.08	14.26783
409.289	15.14237
409.499	15.44163
409.708	15.04829
409.918	13.81865
410.127	15.61001
410.336	16.39251
410.546	15.78519
410.755	15.17543
410.964	15.0815
411.174	14.54983
411.383	15.69297
411.592	15.5547
411.802	15.04978
412.011	15.99464
412.22	15.24119
412.429	16.63145
412.639	16.43816
412.848	16.31627
413.057	16.7628
413.266	16.33757
413.475	15.87209
413.685	16.36018
413.894	16.51674
414.103	16.4356
414.312	16.32556
414.521	15.61878
414.73	16.53272
414.939	17.48221
415.148	16.40705
415.357	16.30421
415.566	16.29867
415.776	16.34832
415.985	16.26557
416.194	17.00174
416.403	17.88697
416.611	15.73904
416.82	16.35843
417.029	16.74677
417.238	16.37669
417.447	16.43402
417.656	16.84578
417.865	16.84818
418.074	17.53534
418.283	18.6141
418.492	20.24619
418.7	19.681
418.909	22.29539
419.118	20.88413
419.327	21.736
419.536	21.60184
419.744	22.32472
419.953	24.01964
420.162	24.50193
420.371	24.23642
420.579	25.67773
420.788	26.63407
420.997	26.95714
421.205	27.49204
421.414	27.23574
421.623	27.7121
421.831	26.81893
422.04	27.23297
422.249	26.07377
422.457	25.98666
422.666	24.67365
422.874	25.79919
423.083	26.15816
423.291	26.19248
423.5	26.45693
423.708	27.14147
423.917	28.08619
424.125	27.4536
424.334	27.57095
424.542	29.38738
424.751	28.66709
424.959	28.01604
425.167	27.93189
425.376	27.43244
