Data from WindowProjectSample3_Transmission__19__00019.txt Node

Date: Sun May 04 10:01:58 EDT 2025
User: jessi
Spectrometer: SR400872
Trigger mode: 0
Integration Time (sec): 5.000070E-1
Scans to average: 10
Electric dark correction enabled: true
Nonlinearity correction enabled: true
Boxcar width: 0
XAxis mode: Wavelengths
Number of Pixels in Spectrum: 3648
>>>>>Begin Spectral Data<<<<<
184.909	-5627.13359
185.132	10997.98135
185.355	-8673.24596
185.578	-53275.69437
185.801	3285.38736
186.024	-133420.96263
186.247	-852.1728
186.47	1402.45188
186.693	1184.10808
186.916	-532.36929
187.139	-2566661.36426
187.362	-2976.78006
187.585	7603.93138
187.808	2126.68293
188.031	-104.25108
188.254	4976.82365
188.476	-2085.55064
188.699	2592.98354
188.922	360.87651
189.145	-6069.48896
189.368	-4143.52763
189.591	1739.10145
189.813	-155431.26481
190.036	9238.35844
190.259	1498.65644
190.482	5568.24953
190.705	16404.2968
190.927	17721.02514
191.15	-4170.17107
191.373	2037.85397
191.595	1534.33189
191.818	17037.97588
192.041	964.77423
192.263	-8204.28389
192.486	-1705.08538
192.709	2919.11631
192.931	-3532.42504
193.154	13864.70883
193.377	2544.30545
193.599	27520.61121
193.822	2171.90687
194.044	2189.20263
194.267	1096.39049
194.489	-112.13442
194.712	3562.87026
194.934	33932.70063
195.157	-535.40002
195.379	11727.15675
195.602	1835.80195
195.824	4784.50823
196.047	6866.82706
196.269	13951.33519
196.492	-11200.90856
196.714	3887.36166
196.936	6815.06869
197.159	10453.89924
197.381	4814.69586
197.604	2103862.32631
197.826	1902.42607
198.048	2086.07294
198.271	9888.6867
198.493	2030.06002
198.715	2743.7543
198.938	9169.97132
199.16	3498.50569
199.382	10177.87688
199.604	9706.70883
199.827	1888.09102
200.049	3185.00701
200.271	22432.16986
200.493	1806.67664
200.715	7594.17808
200.938	7846.93337
201.16	-3866.73212
201.382	34589.64824
201.604	3965.00619
201.826	8266.74257
202.048	4398.76668
202.27	1942.90768
202.492	6019.80939
202.715	18606.16192
202.937	4120.29528
203.159	1534.36407
203.381	2068.36398
203.603	2711.30462
203.825	-1490.92338
204.047	-24164.57865
204.269	3476.08271
204.491	7725.91263
204.713	-1729001.5311
204.935	2364.75409
205.156	3874.91229
205.378	1659.78669
205.6	38014.81533
205.822	4686.14129
206.044	3399.92296
206.266	6218.33585
206.488	1565.07739
206.71	9892.52221
206.932	1478.53836
207.153	29410.88793
207.375	17523.1153
207.597	12678.62912
207.819	39028.08313
208.041	-45080.19836
208.262	1368.1047
208.484	14107.9252
208.706	3759.70069
208.927	2195.49434
209.149	920.27284
209.371	3799.76681
209.593	1253.74441
209.814	9312.24144
210.036	-475783.41948
210.258	1461.28457
210.479	2360.20432
210.701	3461.38797
210.922	-5531.20999
211.144	-3289.34412
211.366	5277.75719
211.587	2605.51751
211.809	5987.17603
212.03	-64165.66049
212.252	515.2189
212.473	899.58624
212.695	862.4025
212.916	1347.79129
213.138	635.00991
213.359	5370.83428
213.581	2716.58321
213.802	861.62294
214.024	7472.56312
214.245	-14832.91439
214.466	396.66518
214.688	3866.18773
214.909	10371.41105
215.131	4347.24532
215.352	2745.25236
215.573	11750.85092
215.795	2161.79096
216.016	1930.20047
216.237	-760488.56645
216.459	2069.46746
216.68	6062.06802
216.901	3182.09582
217.122	752.86783
217.344	2981.69517
217.565	7159.20989
217.786	3580.76047
218.007	951.27429
218.228	2775.26455
218.45	-17304.4408
218.671	50474.65753
218.892	20193.64412
219.113	1739.91453
219.334	8364.41062
219.555	-7992.45089
219.776	1845.09145
219.997	4303.56149
220.219	1234.95772
220.44	1549.59679
220.661	1600.2505
220.882	5798.57258
221.103	1580.57676
221.324	7794.36124
221.545	3195.95039
221.766	3030.90037
221.987	1497.58477
222.208	974.76375
222.429	2311.38795
222.65	244.18576
222.87	836.61294
223.091	1717.38231
223.312	1105.82306
223.533	2021.79841
223.754	1595.69199
223.975	1777.22312
224.196	1078.70566
224.417	5352.9633
224.637	736.18149
224.858	89.8642
225.079	1226.50038
225.3	675.65665
225.521	2280.05753
225.741	634.97577
225.962	632.56127
226.183	164.48204
226.404	999.72367
226.624	562.16803
226.845	625.1903
227.066	458.31141
227.286	289.17881
227.507	198.1636
227.728	160.77655
227.948	277.71944
228.169	101.54948
228.389	106.84742
228.61	60.45545
228.831	84.79379
229.051	10.3217
229.272	52.64302
229.492	73.20626
229.713	23.35101
229.933	54.45636
230.154	45.3141
230.374	76.14782
230.595	57.88938
230.815	34.0566
231.036	61.4302
231.256	-9.13049
231.477	100.89534
231.697	58.11457
231.917	60.91885
232.138	87.2191
232.358	159.16428
232.579	148.69698
232.799	27.50548
233.019	132.76396
233.24	166.07479
233.46	56.85855
233.68	93.19954
233.901	62.73042
234.121	40.87621
234.341	17.01997
234.561	1.41396
234.782	58.62861
235.002	99.93122
235.222	0.83903
235.442	93.45308
235.662	46.6844
235.883	90.00053
236.103	76.97858
236.323	55.71961
236.543	41.10026
236.763	63.62745
236.983	60.67899
237.203	65.03888
237.423	91.16103
237.643	131.98313
237.864	117.13
238.084	31.52278
238.304	42.90642
238.524	69.00706
238.744	59.00076
238.964	97.7332
239.184	87.49627
239.404	95.00971
239.624	52.34631
239.843	87.86372
240.063	50.70029
240.283	32.22954
240.503	34.95803
240.723	35.69938
240.943	21.08313
241.163	29.24538
241.383	20.84272
241.603	10.45601
241.822	12.93184
242.042	9.4031
242.262	12.63876
242.482	14.07788
242.702	15.60481
242.921	4.88555
243.141	11.24664
243.361	10.11062
243.581	14.65707
243.8	12.16602
244.02	8.07479
244.24	14.68348
244.459	13.09153
244.679	27.78878
244.899	18.95795
245.118	22.26355
245.338	18.8004
245.558	21.49972
245.777	12.48189
245.997	14.34438
246.216	14.72244
246.436	8.31849
246.655	5.85343
246.875	4.43183
247.094	8.68541
247.314	3.37912
247.533	5.27723
247.753	6.50512
247.972	5.49098
248.192	2.11357
248.411	3.33269
248.631	5.43244
248.85	7.30304
249.07	6.53004
249.289	9.56184
249.508	6.93262
249.728	11.60109
249.947	12.04258
250.166	13.05097
250.386	7.75022
250.605	10.14785
250.824	17.58378
251.044	12.75409
251.263	36.13106
251.482	20.73998
251.701	16.60801
251.921	-0.22518
252.14	5.945
252.359	6.2839
252.578	14.68833
252.798	5.62916
253.017	13.9559
253.236	7.15043
253.455	9.46858
253.674	19.00359
253.893	8.69626
254.112	13.12739
254.331	17.16929
254.551	16.22435
254.77	6.66211
254.989	20.69735
255.208	18.14049
255.427	22.08618
255.646	20.2147
255.865	32.45194
256.084	13.00662
256.303	15.4965
256.522	21.24442
256.741	4.20413
256.96	5.39374
257.179	11.28238
257.397	17.18166
257.616	8.55875
257.835	9.5445
258.054	22.8947
258.273	15.14699
258.492	16.39297
258.711	9.66988
258.93	4.3303
259.148	5.75968
259.367	6.49369
259.586	8.08595
259.805	3.25187
260.023	7.33415
260.242	5.38296
260.461	4.03884
260.68	2.27663
260.898	6.42616
261.117	2.11924
261.336	1.58974
261.554	5.6528
261.773	5.87909
261.992	1.37955
262.21	5.91623
262.429	6.83784
262.648	10.54049
262.866	12.95336
263.085	7.92899
263.303	8.06702
263.522	13.41037
263.74	13.67511
263.959	23.29363
264.178	11.98041
264.396	10.47691
264.615	8.38419
264.833	17.87821
265.051	14.80119
265.27	14.93613
265.488	16.12115
265.707	9.50421
265.925	16.19301
266.144	7.83067
266.362	8.90359
266.58	9.07903
266.799	7.33415
267.017	9.44646
267.235	8.02692
267.454	5.14286
267.672	2.99743
267.89	6.86559
268.109	7.1424
268.327	6.86032
268.545	1.87965
268.763	6.23036
268.982	2.8483
269.2	7.81981
269.418	4.8303
269.636	3.53759
269.854	7.37027
270.073	5.27228
270.291	2.82224
270.509	3.16217
270.727	7.09714
270.945	11.06752
271.163	10.94424
271.381	2.95751
271.599	4.61628
271.817	8.08129
272.036	2.6005
272.254	5.03046
272.472	3.92928
272.69	3.7579
272.908	3.87356
273.126	6.34085
273.344	7.89294
273.562	3.02127
273.779	3.93521
273.997	5.95916
274.215	6.85221
274.433	4.73482
274.651	7.17067
274.869	7.35935
275.087	4.52602
275.305	6.61343
275.523	4.30833
275.74	4.69552
275.958	8.26788
276.176	11.97216
276.394	4.17971
276.612	5.15725
276.829	5.1847
277.047	4.4238
277.265	4.78959
277.483	5.78398
277.7	6.49897
277.918	5.38567
278.136	9.60024
278.353	4.53235
278.571	3.10213
278.789	7.4733
279.006	1.88636
279.224	4.35034
279.442	7.34566
279.659	5.61904
279.877	3.94539
280.094	8.55422
280.312	1.76204
280.529	5.45411
280.747	1.86249
280.964	4.23321
281.182	8.45422
281.399	4.28251
281.617	5.59338
281.834	3.91502
282.052	3.28678
282.269	4.8829
282.487	4.00375
282.704	3.43672
282.921	3.60162
283.139	4.97144
283.356	6.63195
283.574	5.83201
283.791	2.99512
284.008	8.21466
284.226	4.76922
284.443	5.09262
284.66	6.2657
284.877	5.19435
285.095	3.16444
285.312	2.4622
285.529	1.68828
285.746	1.44133
285.964	3.35265
286.181	2.2116
286.398	2.92994
286.615	4.17485
286.832	4.06087
287.05	1.03481
287.267	3.05877
287.484	2.9455
287.701	4.28517
287.918	4.06798
288.135	4.30506
288.352	1.92619
288.569	2.32605
288.786	3.93525
289.003	3.08702
289.22	4.37353
289.437	2.5844
289.654	4.57396
289.871	4.56517
290.088	4.30826
290.305	3.36901
290.522	2.63856
290.739	3.23862
290.956	4.93238
291.173	5.53751
291.39	5.4099
291.607	3.73494
291.824	3.07771
292.04	1.97206
292.257	4.5664
292.474	5.05322
292.691	3.23507
292.908	1.8275
293.125	2.66806
293.341	1.77889
293.558	7.60797
293.775	3.12102
293.992	3.12953
294.208	1.28062
294.425	2.12981
294.642	2.8138
294.858	3.99613
295.075	1.39873
295.292	3.08948
295.508	3.6656
295.725	5.53164
295.942	2.69729
296.158	1.81056
296.375	3.29395
296.591	2.3348
296.808	2.42389
297.024	2.90826
297.241	3.30297
297.458	3.45709
297.674	0.29176
297.891	2.81527
298.107	2.23612
298.323	1.77836
298.54	4.18701
298.756	2.08485
298.973	1.21277
299.189	4.45849
299.406	1.92227
299.622	4.54707
299.838	4.37337
300.055	3.92392
300.271	0.82404
300.487	1.50553
300.704	1.75954
300.92	1.02624
301.136	5.65248
301.353	4.57388
301.569	3.24565
301.785	3.43299
302.001	4.16768
302.218	3.55177
302.434	3.67667
302.65	1.07612
302.866	2.51272
303.083	5.73271
303.299	5.84526
303.515	2.62198
303.731	3.29204
303.947	1.02931
304.163	2.10468
304.379	3.32823
304.595	3.69462
304.812	2.11479
305.028	1.98463
305.244	2.5361
305.46	4.18577
305.676	3.96024
305.892	4.91225
306.108	3.38107
306.324	2.66118
306.54	5.68191
306.756	3.94924
306.972	3.79394
307.187	2.46731
307.403	5.38769
307.619	2.51085
307.835	4.76843
308.051	5.08967
308.267	1.47711
308.483	4.16154
308.699	3.80551
308.914	3.14347
309.13	2.82506
309.346	0.86614
309.562	1.54823
309.778	0.96492
309.993	3.8023
310.209	2.60633
310.425	1.36799
310.641	2.39836
310.856	1.39448
311.072	1.46668
311.288	2.59031
311.503	3.01803
311.719	0.76568
311.935	0.39214
312.15	3.12942
312.366	2.92962
312.581	3.60027
312.797	2.77516
313.013	3.7396
313.228	1.98833
313.444	2.88481
313.659	2.07665
313.875	3.43563
314.09	2.78791
314.306	4.81206
314.521	4.21165
314.737	3.61616
314.952	3.28284
315.168	2.88099
315.383	3.47735
315.599	2.75767
315.814	2.36736
316.029	4.05196
316.245	1.10093
316.46	1.03773
316.675	4.69321
316.891	5.74603
317.106	7.17382
317.321	3.98607
317.537	3.58109
317.752	3.92548
317.967	4.02951
318.183	1.83671
318.398	2.88943
318.613	4.43079
318.828	4.86075
319.043	4.44327
319.259	2.6684
319.474	3.34614
319.689	4.75186
319.904	0.7588
320.119	3.86527
320.334	3.69
320.549	2.87869
320.765	4.866
320.98	3.2883
321.195	4.36316
321.41	2.78535
321.625	4.18407
321.84	5.73709
322.055	5.67779
322.27	2.47799
322.485	1.94435
322.7	3.65165
322.915	4.69614
323.13	1.80763
323.345	4.89608
323.56	4.11537
323.775	3.9927
323.989	3.81013
324.204	3.51782
324.419	4.20974
324.634	1.22207
324.849	2.8223
325.064	6.02014
325.279	4.3677
325.493	3.81164
325.708	4.54384
325.923	2.20707
326.138	1.91871
326.352	5.20298
326.567	4.34915
326.782	2.59242
326.997	1.96985
327.211	4.12549
327.426	3.64981
327.641	2.70631
327.855	0.92273
328.07	3.83464
328.285	5.39423
328.499	2.65454
328.714	3.72292
328.928	4.35075
329.143	3.07765
329.358	4.75983
329.572	4.65825
329.787	4.7606
330.001	6.59036
330.216	1.25172
330.43	5.16051
330.645	5.46481
330.859	4.41932
331.074	2.35354
331.288	3.58169
331.503	4.75471
331.717	1.71719
331.931	3.10311
332.146	3.19488
332.36	5.96311
332.575	3.87631
332.789	3.52699
333.003	2.99135
333.218	3.82901
333.432	2.22275
333.646	3.82139
333.86	5.11542
334.075	5.39814
334.289	2.23191
334.503	1.91187
334.717	3.80707
334.932	3.71388
335.146	4.85837
335.36	3.04816
335.574	4.21111
335.788	4.04208
336.003	5.28785
336.217	4.34608
336.431	4.31122
336.645	2.45859
336.859	1.58775
337.073	2.82989
337.287	3.27858
337.501	1.98131
337.715	3.18776
337.929	3.81422
338.143	1.62024
338.357	3.00843
338.571	1.79859
338.785	3.56466
338.999	2.38042
339.213	2.47874
339.427	1.35961
339.641	4.84919
339.855	2.84521
340.069	2.63659
340.283	4.61646
340.497	5.59205
340.711	3.6901
340.924	2.61263
341.138	1.73329
341.352	1.44718
341.566	3.34634
341.78	0.93593
341.993	2.39664
342.207	1.58073
342.421	3.23032
342.635	2.92276
342.848	2.30371
343.062	0.43342
343.276	2.20996
343.49	5.73883
343.703	2.22421
343.917	4.07712
344.131	4.14502
344.344	2.26219
344.558	2.2885
344.771	1.7738
344.985	4.62905
345.199	5.07547
345.412	3.34175
345.626	3.36662
345.839	1.01999
346.053	1.57798
346.266	1.70122
346.48	3.99688
346.693	3.40418
346.907	3.8086
347.12	1.80673
347.334	3.47874
347.547	3.34821
347.76	2.60976
347.974	4.61549
348.187	3.56446
348.401	2.46524
348.614	2.12782
348.827	2.52009
349.041	3.84904
349.254	1.03449
349.467	2.88799
349.681	1.39142
349.894	2.1839
350.107	4.28676
350.32	4.89788
350.534	1.12236
350.747	2.60633
350.96	1.77929
351.173	2.08264
351.386	2.32108
351.6	2.53793
351.813	1.97053
352.026	3.01604
352.239	1.07987
352.452	2.65927
352.665	3.78748
352.878	2.55417
353.092	5.38111
353.305	3.60525
353.518	2.83229
353.731	1.84264
353.944	4.20831
354.157	2.08049
354.37	1.62091
354.583	1.47659
354.796	0.64803
355.009	4.23983
355.222	2.79475
355.435	2.78264
355.647	3.97357
355.86	1.4994
356.073	2.58415
356.286	2.12581
356.499	3.58507
356.712	3.09264
356.925	3.16897
357.138	3.81018
357.35	1.39979
357.563	2.21798
357.776	2.63982
357.989	2.03703
358.201	3.18443
358.414	2.82038
358.627	3.85144
358.84	2.1617
359.052	1.39035
359.265	1.28794
359.478	3.92123
359.69	-0.3284
359.903	3.1258
360.116	3.36989
360.328	0.71212
360.541	3.34351
360.753	1.23211
360.966	1.81494
361.179	1.83197
361.391	1.67724
361.604	1.19218
361.816	1.8361
362.029	1.52773
362.241	1.23722
362.454	1.66248
362.666	1.25209
362.879	2.24545
363.091	1.92465
363.304	1.28995
363.516	2.31161
363.728	0.95194
363.941	2.94126
364.153	1.5977
364.366	-0.14995
364.578	0.93487
364.79	2.75097
365.003	2.20056
365.215	1.856
365.427	2.64187
365.639	3.73311
365.852	2.50245
366.064	4.47965
366.276	1.79609
366.488	2.83648
366.701	1.86079
366.913	2.00772
367.125	2.12209
367.337	1.66573
367.549	1.85376
367.762	2.51825
367.974	2.35034
368.186	1.55488
368.398	3.47086
368.61	2.90613
368.822	3.17218
369.034	2.35977
369.246	2.95199
369.458	4.95485
369.67	1.27355
369.882	4.51679
370.094	0.21555
370.306	4.0944
370.518	1.94625
370.73	1.60857
370.942	1.39561
371.154	1.91576
371.366	1.64206
371.578	2.77986
371.79	1.3593
372.002	3.46046
372.214	4.11905
372.425	2.62912
372.637	3.65942
372.849	2.50089
373.061	0.22404
373.273	2.87551
373.484	2.8665
373.696	3.20238
373.908	-0.12551
374.12	3.54342
374.331	2.83588
374.543	1.39375
374.755	1.3313
374.967	2.38619
375.178	3.09012
375.39	2.01818
375.602	2.39309
375.813	0.88477
376.025	0.93752
376.236	2.18558
376.448	2.48107
376.66	1.59816
376.871	1.59891
377.083	3.1155
377.294	3.41269
377.506	1.53736
377.717	3.58284
377.929	2.38265
378.14	1.27375
378.352	2.87791
378.563	2.75495
378.775	3.49831
378.986	1.5184
379.197	2.36386
379.409	1.7828
379.62	3.1923
379.832	2.54783
380.043	1.89595
380.254	2.40043
380.466	0.92742
380.677	5.17276
380.888	4.6191
381.1	4.93902
381.311	4.76421
381.522	2.29713
381.733	5.47315
381.945	1.8976
382.156	2.55
382.367	1.73567
382.578	5.35579
382.789	5.21228
383.001	1.77159
383.212	3.81891
383.423	3.92518
383.634	3.55499
383.845	2.7546
384.056	1.90076
384.267	2.40526
384.478	2.09174
384.69	1.13137
384.901	2.75761
385.112	2.74382
385.323	3.98748
385.534	2.77833
385.745	2.53316
385.956	2.89335
386.167	1.24246
386.378	2.78606
386.588	1.08516
386.799	1.53411
387.01	0.53107
387.221	3.20812
387.432	2.02216
387.643	4.37399
387.854	2.23565
388.065	2.00996
388.275	2.15495
388.486	2.03036
388.697	2.27071
388.908	2.16212
389.119	3.55776
389.329	4.35502
389.54	2.4483
389.751	2.85776
389.962	3.58133
390.172	2.70624
390.383	1.75734
390.594	1.66932
390.804	1.69053
391.015	1.82692
391.226	2.57268
391.436	2.82206
391.647	2.80384
391.858	3.08204
392.068	0.73109
392.279	1.27471
392.489	2.63336
392.7	3.48412
392.91	1.19774
393.121	1.65639
393.331	2.8909
393.542	3.78117
393.752	3.10393
393.963	2.6371
394.173	2.48204
394.384	3.09905
394.594	2.42882
394.804	1.24652
395.015	2.64491
395.225	3.23368
395.436	1.42593
395.646	2.99488
395.856	1.81135
396.067	1.13421
396.277	3.7255
396.487	3.03279
396.697	2.69972
396.908	3.41018
397.118	3.44551
397.328	2.71681
397.538	3.55041
397.749	1.79365
397.959	3.66448
398.169	3.29182
398.379	1.40692
398.589	3.32291
398.8	2.74634
399.01	2.73075
399.22	2.53015
399.43	5.12375
399.64	2.50516
399.85	3.44109
400.06	2.66087
400.27	2.09426
400.48	2.78241
400.69	4.31028
400.9	2.18507
401.11	2.07516
401.32	3.69873
401.53	2.16582
401.74	4.51566
401.95	3.82421
402.16	1.89044
402.37	3.2295
402.58	2.22455
402.79	3.55436
403	3.73031
403.209	2.27447
403.419	3.65403
403.629	2.31743
403.839	3.61846
404.049	3.81502
404.258	2.21654
404.468	1.92569
404.678	3.51461
404.888	3.76979
405.097	2.03833
405.307	2.87652
405.517	3.37422
405.727	3.34214
405.936	2.52507
406.146	3.20282
406.356	4.37207
406.565	3.02872
406.775	2.44609
406.984	2.6285
407.194	4.85379
407.404	3.12661
407.613	3.35473
407.823	3.90684
408.032	4.37337
408.242	4.31419
408.451	2.70311
408.661	3.0297
408.87	4.929
409.08	2.87493
409.289	3.62145
409.499	3.30668
409.708	3.31712
409.918	1.29075
410.127	3.24142
410.336	4.75669
410.546	4.04413
410.755	2.78413
410.964	2.85649
411.174	2.54448
411.383	3.77631
411.592	3.70263
411.802	2.37909
412.011	4.40894
412.22	3.37313
412.429	4.8666
412.639	4.70757
412.848	4.67556
413.057	5.06045
413.266	4.56119
413.475	3.36221
413.685	4.1723
413.894	4.39018
414.103	4.61575
414.312	4.17087
414.521	3.434
414.73	3.4506
414.939	5.39774
415.148	4.00274
415.357	3.76575
415.566	3.2099
415.776	3.29864
415.985	3.05445
416.194	4.3096
416.403	5.17953
416.611	2.34274
416.82	2.91619
417.029	3.55676
417.238	2.82987
417.447	2.78715
417.656	3.06514
417.865	2.72624
418.074	3.14641
418.283	3.30381
418.492	4.12165
418.7	3.97322
418.909	4.70014
419.118	3.55
419.327	3.81114
419.536	3.55274
419.744	2.9657
419.953	4.23532
420.162	4.10054
420.371	3.06261
420.579	3.11088
420.788	4.25842
420.997	4.31366
421.205	4.221
421.414	4.02732
421.623	3.9356
421.831	3.61202
422.04	4.38986
422.249	3.39601
422.457	4.04666
422.666	3.42874
422.874	4.49741
423.083	4.47268
423.291	4.30832
423.5	4.02372
423.708	4.25343
423.917	4.82896
424.125	4.23055
424.334	3.81101
424.542	5.8859
424.751	4.9505
424.959	4.64586
425.167	5.031
425.376	4.88714
425.584	4.05083
425.793	4.51227
426.001	3.44273
426.209	4.73447
426.418	3.52045
426.626	3.70264
426.834	3.48235
427.042	4.13705
