Data from WindowProjectSample_Transmission__28__00028__006823462453926021.txt Node

Date: Mon May 05 17:30:08 EDT 2025
User: jessi
Spectrometer: SR400872
Trigger mode: 0
Integration Time (sec): 5.000010E-1
Scans to average: 20
Electric dark correction enabled: true
Nonlinearity correction enabled: true
Boxcar width: 0
XAxis mode: Wavelengths
Number of Pixels in Spectrum: 3648
>>>>>Begin Spectral Data<<<<<
184.909	20713.03212
185.132	-4967.09121
185.355	-3015.40523
185.578	-17082.46201
185.801	2190.89791
186.024	10025.53405
186.247	-1865.82225
186.47	1264.77999
186.693	335.22773
186.916	282.44847
187.139	-3649.83056
187.362	3127.69869
187.585	3780.62465
187.808	3486.7029
188.031	-22.6966
188.254	-52979.75065
188.476	-676.98857
188.699	6103.7566
188.922	473.07853
189.145	-14961.95505
189.368	-612.08703
189.591	-1135.14493
189.813	3152.12752
190.036	-50357.00934
190.259	-846.91076
190.482	-4231.22704
190.705	6882.00175
190.927	-2349.45915
191.15	12575.35397
191.373	3034.646
191.595	-8317.09905
191.818	-3993.2231
192.041	-5696.10787
192.263	-3328.99372
192.486	-710.91137
192.709	-3874.59727
192.931	7569.67919
193.154	-28134.43479
193.377	-2714.47556
193.599	-2412.91028
193.822	-7873.83832
194.044	-1880.3282
194.267	1142.31189
194.489	310.94848
194.712	-41964.94466
194.934	-30335.94871
195.157	1160.74513
195.379	1383.56316
195.602	-6499.81398
195.824	-1211.22478
196.047	-8317.6797
196.269	2667.63919
196.492	-6007.28041
196.714	28750.26604
196.936	-8453.16645
197.159	-1113.85506
197.381	1086.40685
197.604	407.92341
197.826	11899.55949
198.048	-9847.76176
198.271	-2591.39465
198.493	7544.66625
198.715	2032.63512
198.938	-475.98542
199.16	6790.1346
199.382	-96005.93402
199.604	2469.37908
199.827	-990.28168
200.049	-2836.07242
200.271	13636.08887
200.493	1174.72422
200.715	-35931.14331
200.938	-5780.75777
201.16	-4153.12221
201.382	18781.66049
201.604	2199.98746
201.826	2197.0605
202.048	-1979.95699
202.27	-1694.00387
202.492	-35361.9344
202.715	2863.30195
202.937	-4268.66997
203.159	-6238.88263
203.381	1496.02075
203.603	6748.19984
203.825	6124.53397
204.047	2238.79279
204.269	-2749.64393
204.491	1951.55341
204.713	5865.10678
204.935	-474600.98697
205.156	1132.0193
205.378	-2672.74464
205.6	1596.44424
205.822	148216.73775
206.044	-880.68267
206.266	1622.75619
206.488	4305.14083
206.71	-4979.56689
206.932	1061.87532
207.153	11576.76621
207.375	-6898.29536
207.597	-36565.00468
207.819	-2682.22667
208.041	2313.07197
208.262	457.21404
208.484	673.90646
208.706	-718.21816
208.927	-793.11268
209.149	499.69039
209.371	-2742.63014
209.593	-212.74156
209.814	-788.63913
210.036	486.82234
210.258	-710.51676
210.479	1637.29335
210.701	1515.39959
210.922	3337.83402
211.144	-3322.24242
211.366	2028.38969
211.587	7694.28632
211.809	-7790.23436
212.03	2337.41343
212.252	423.72505
212.473	1971.03054
212.695	-6362.1485
212.916	2719.10747
213.138	-633.79589
213.359	3554.94698
213.581	4939.68437
213.802	-875.94169
214.024	1099.42144
214.245	2057.50501
214.466	2196.84847
214.688	-2957.56247
214.909	-1110.01202
215.131	-1613.9069
215.352	-3027.25178
215.573	14226.65082
215.795	4909.46451
216.016	5159.84773
216.237	728.00195
216.459	3330.79768
216.68	1667.58394
216.901	5030.0721
217.122	-3149.6349
217.344	-10852.471
217.565	3271.16714
217.786	8777.26063
218.007	14465.63134
218.228	-739.47153
218.45	5765.92279
218.671	654.81675
218.892	36127.10819
219.113	1440.10546
219.334	-423.35147
219.555	9394.10303
219.776	3037.06718
219.997	21635.17404
220.219	2725.20481
220.44	-10786.84068
220.661	473.33723
220.882	1451.96862
221.103	-1038.99868
221.324	2090.18463
221.545	2229.69542
221.766	-8476.09185
221.987	775.92515
222.208	1701.13957
222.429	4153.84703
222.65	141.84167
222.87	16734.44209
223.091	668.37626
223.312	539.52577
223.533	1251.53902
223.754	1431.56893
223.975	1264.78928
224.196	1913.74365
224.417	1276.13199
224.637	609.27316
224.858	109.22158
225.079	1077.99664
225.3	695.79707
225.521	3655.53578
225.741	449.42547
225.962	488.8347
226.183	133.76038
226.404	638.33522
226.624	407.19583
226.845	582.82638
227.066	384.35746
227.286	244.54306
227.507	121.98082
227.728	108.07407
227.948	225.56515
228.169	71.77292
228.389	78.23863
228.61	42.63661
228.831	60.49967
229.051	2.17053
229.272	35.49129
229.492	52.32809
229.713	13.08137
229.933	34.18812
230.154	29.86807
230.374	52.00148
230.595	37.21131
230.815	22.65727
231.036	39.08357
231.256	-9.3846
231.477	66.6635
231.697	36.77924
231.917	41.26141
232.138	55.9903
232.358	111.39959
232.579	102.06404
232.799	15.49707
233.019	95.99611
233.24	110.12906
233.46	38.83592
233.68	58.58752
233.901	39.21682
234.121	25.24783
234.341	9.19525
234.561	-4.97513
234.782	20.72285
235.002	63.32637
235.222	-4.61622
235.442	63.46493
235.662	31.69019
235.883	57.60647
236.103	48.90588
236.323	35.21341
236.543	25.39513
236.763	38.16189
236.983	40.58161
237.203	40.40983
237.423	54.36843
237.643	85.22438
237.864	70.69651
238.084	16.17375
238.304	23.26032
238.524	42.52114
238.744	37.37977
238.964	70.80517
239.184	59.3408
239.404	61.02861
239.624	31.99373
239.843	56.4987
240.063	33.59512
240.283	21.24662
240.503	24.20248
240.723	24.07516
240.943	13.83959
241.163	19.25394
241.383	12.05723
241.603	6.71765
241.822	9.21541
242.042	5.79859
242.262	7.94357
242.482	8.94682
242.702	10.29639
242.921	2.43211
243.141	6.30667
243.361	5.73791
243.581	8.98166
243.8	6.99927
244.02	4.71407
244.24	8.9409
244.459	8.61648
244.679	17.55175
244.899	10.66719
245.118	11.78147
245.338	10.41539
245.558	12.61925
245.777	7.93024
245.997	10.04572
246.216	10.30601
246.436	5.72728
246.655	4.33752
246.875	2.933
247.094	6.04529
247.314	1.97495
247.533	3.55026
247.753	3.99322
247.972	3.21009
248.192	0.93184
248.411	1.76351
248.631	3.29046
248.85	4.31538
249.07	3.42165
249.289	5.46546
249.508	4.60522
249.728	6.46507
249.947	6.70185
250.166	7.98519
250.386	4.07779
250.605	5.83369
250.824	10.29752
251.044	7.04719
251.263	27.52425
251.482	14.23511
251.701	11.95738
251.921	-0.41134
252.14	3.18872
252.359	3.25226
252.578	9.57303
252.798	3.32521
253.017	8.76469
253.236	4.30749
253.455	5.36136
253.674	10.08836
253.893	4.86726
254.112	7.16188
254.331	10.53365
254.551	7.75026
254.77	3.42969
254.989	12.12152
255.208	9.77572
255.427	14.3055
255.646	10.91765
255.865	21.35473
256.084	8.15778
256.303	10.51967
256.522	13.07286
256.741	2.4729
256.96	3.19599
257.179	7.88175
257.397	9.93539
257.616	5.13335
257.835	5.41126
258.054	14.70333
258.273	9.79099
258.492	10.4846
258.711	6.67139
258.93	2.61424
259.148	4.41536
259.367	4.3309
259.586	5.28076
259.805	2.23553
260.023	5.19752
260.242	3.81992
260.461	2.68099
260.68	1.22114
260.898	4.3658
261.117	1.24175
261.336	0.90128
261.554	3.28647
261.773	3.31397
261.992	0.80814
262.21	3.26623
262.429	3.36176
262.648	7.29266
262.866	7.72179
263.085	5.13618
263.303	4.42298
263.522	8.35879
263.74	8.61352
263.959	15.00076
264.178	6.71598
264.396	6.57909
264.615	4.14987
264.833	10.23197
265.051	8.08004
265.27	10.44673
265.488	10.64911
265.707	5.68799
265.925	10.76072
266.144	4.33987
266.362	5.22456
266.58	5.46611
266.799	4.82493
267.017	5.66747
267.235	5.02971
267.454	3.24535
267.672	1.77395
267.89	3.85418
268.109	4.20454
268.327	3.95457
268.545	0.99946
268.763	3.51423
268.982	1.44512
269.2	3.80125
269.418	2.77116
269.636	1.50322
269.854	4.62028
270.073	2.91052
270.291	1.80641
270.509	1.52378
270.727	4.00836
270.945	6.63516
271.163	6.92731
271.381	1.36659
271.599	3.10596
271.817	5.35422
272.036	1.83629
272.254	2.99273
272.472	2.22974
272.69	2.46831
272.908	2.20993
273.126	4.38119
273.344	5.3664
273.562	1.65716
273.779	2.30181
273.997	3.49703
274.215	3.86592
274.433	2.68316
274.651	4.40757
274.869	4.3912
275.087	2.71149
275.305	3.87708
275.523	2.19053
275.74	2.77533
275.958	5.19609
276.176	7.78136
276.394	2.52663
276.612	2.8906
276.829	3.06355
277.047	2.55245
277.265	2.83087
277.483	3.20605
277.7	4.10049
277.918	3.37675
278.136	5.9305
278.353	2.75663
278.571	1.62953
278.789	4.12264
279.006	0.86055
279.224	2.7883
279.442	4.89678
279.659	3.43352
279.877	2.09933
280.094	5.7642
280.312	0.89543
280.529	3.20055
280.747	0.84954
280.964	2.5626
281.182	5.75137
281.399	2.55829
281.617	3.76395
281.834	2.33066
282.052	1.78962
282.269	3.07984
282.487	2.25193
282.704	1.84299
282.921	2.17153
283.139	3.20246
283.356	3.90317
283.574	3.61711
283.791	1.80622
284.008	5.42113
284.226	2.8879
284.443	3.08418
284.66	4.27084
284.877	3.29739
285.095	1.97244
285.312	1.58309
285.529	0.77836
285.746	0.71287
285.964	1.89059
286.181	1.23393
286.398	1.85768
286.615	2.56839
286.832	2.5217
287.05	0.48429
287.267	1.73099
287.484	1.63925
287.701	2.53868
287.918	2.46219
288.135	2.66705
288.352	1.16333
288.569	1.36912
288.786	2.33037
289.003	1.93095
289.22	2.8942
289.437	1.53396
289.654	2.72956
289.871	3.04907
290.088	2.80038
290.305	2.18904
290.522	1.68942
290.739	1.9555
290.956	3.07394
291.173	3.38545
291.39	3.29424
291.607	2.32043
291.824	1.44343
292.04	1.1652
292.257	2.85332
292.474	3.08733
292.691	1.80739
292.908	0.7143
293.125	1.6215
293.341	1.06204
293.558	4.77985
293.775	1.76574
293.992	1.85827
294.208	0.77335
294.425	1.38805
294.642	1.83192
294.858	2.53273
295.075	0.54117
295.292	1.89587
295.508	2.20754
295.725	4.04202
295.942	1.62921
296.158	1.22986
296.375	1.95922
296.591	1.51093
296.808	1.72979
297.024	2.03638
297.241	2.30822
297.458	2.43682
297.674	0.26484
297.891	1.87791
298.107	1.59486
298.323	1.17364
298.54	3.17338
298.756	1.44205
298.973	0.73379
299.189	3.34869
299.406	1.38275
299.622	2.8002
299.838	2.84704
300.055	2.71154
300.271	0.86439
300.487	1.17903
300.704	1.51612
300.92	0.98107
301.136	4.41227
301.353	2.72716
301.569	1.99285
301.785	2.40998
302.001	2.79294
302.218	2.3586
302.434	2.62931
302.65	1.0172
302.866	1.812
303.083	4.03771
303.299	4.01592
303.515	2.29635
303.731	2.44387
303.947	0.9996
304.163	1.64442
304.379	2.39619
304.595	2.57665
304.812	1.63751
305.028	1.58816
305.244	2.04998
305.46	2.97489
305.676	2.99831
305.892	3.47684
306.108	2.74009
306.324	1.85554
306.54	4.06594
306.756	2.78202
306.972	2.65836
307.187	2.27956
307.403	3.57294
307.619	1.9412
307.835	3.45465
308.051	3.676
308.267	1.40897
308.483	3.18466
308.699	2.83048
308.914	2.27052
309.13	2.22562
309.346	1.08906
309.562	1.49421
309.778	1.12659
309.993	2.78652
310.209	2.44417
310.425	1.29499
310.641	2.12972
310.856	1.49064
311.072	1.46735
311.288	2.19181
311.503	2.49923
311.719	0.82638
311.935	0.81019
312.15	2.77135
312.366	2.35233
312.581	2.68814
312.797	2.36945
313.013	3.05122
313.228	1.78143
313.444	2.1624
313.659	1.87835
313.875	2.84537
314.09	2.24758
314.306	3.52861
314.521	3.0269
314.737	2.96791
314.952	2.32206
315.168	2.36096
315.383	2.75756
315.599	2.06182
315.814	1.99022
316.029	2.90645
316.245	1.36485
316.46	0.90963
316.675	3.46407
316.891	4.00167
317.106	5.00872
317.321	2.63179
317.537	3.07362
317.752	3.14851
317.967	3.1192
318.183	1.52701
318.398	2.00263
318.613	3.20148
318.828	3.71398
319.043	3.00537
319.259	2.18338
319.474	2.57193
319.689	3.42217
319.904	0.9636
320.119	3.14097
320.334	2.68183
320.549	2.16543
320.765	3.35564
320.98	2.62054
321.195	3.07763
321.41	2.30212
321.625	3.16727
321.84	3.97681
322.055	3.87715
322.27	1.73147
322.485	1.42421
322.7	2.74735
322.915	3.21745
323.13	1.66302
323.345	3.80751
323.56	3.40475
323.775	3.01838
323.989	2.78309
324.204	2.66308
324.419	3.39041
324.634	1.47985
324.849	2.35391
325.064	5.55041
325.279	3.26835
325.493	2.84202
325.708	3.14053
325.923	1.80077
326.138	1.91839
326.352	3.89608
326.567	3.30681
326.782	2.01253
326.997	1.97973
327.211	2.9606
327.426	2.61528
327.641	2.16249
327.855	1.13634
328.07	2.87533
328.285	4.09462
328.499	1.99218
328.714	2.69247
328.928	3.03199
329.143	2.23802
329.358	3.26791
329.572	3.3641
329.787	3.48119
330.001	4.66553
330.216	1.30733
330.43	4.23345
330.645	3.84251
330.859	3.17265
331.074	1.78415
331.288	2.72096
331.503	3.79833
331.717	1.55418
331.931	2.69816
332.146	2.63377
332.36	4.14649
332.575	2.79551
332.789	2.76945
333.003	2.62877
333.218	2.99549
333.432	2.03455
333.646	3.29239
333.86	3.99375
334.075	3.84484
334.289	2.00169
334.503	1.49509
334.717	2.88511
334.932	2.90503
335.146	3.51059
335.36	2.04336
335.574	2.97642
335.788	2.93156
336.003	3.41721
336.217	3.05449
336.431	2.86783
336.645	1.95474
336.859	1.43326
337.073	2.29981
337.287	2.77458
337.501	1.56848
337.715	2.84788
337.929	3.16883
338.143	1.51894
338.357	2.29411
338.571	1.77146
338.785	2.86549
338.999	2.11254
339.213	1.998
339.427	1.31901
339.641	3.6494
339.855	2.26153
340.069	1.93096
340.283	3.29092
340.497	4.07366
340.711	2.84235
340.924	2.2963
341.138	1.4608
341.352	1.4244
341.566	2.63527
341.78	1.11833
341.993	2.123
342.207	1.66675
342.421	2.65528
342.635	2.29343
342.848	2.15967
343.062	0.58867
343.276	1.87927
343.49	4.08022
343.703	1.79316
343.917	3.32922
344.131	3.33151
344.344	1.73837
344.558	2.08617
344.771	1.42252
344.985	3.75486
345.199	3.75372
345.412	2.65555
345.626	2.85505
345.839	1.08326
346.053	1.43108
346.266	1.54762
346.48	2.90901
346.693	2.73424
346.907	2.49411
347.12	1.51872
347.334	2.53749
347.547	2.64639
347.76	2.23569
347.974	3.39756
348.187	2.60789
348.401	2.05071
348.614	1.72619
348.827	1.9093
349.041	2.68118
349.254	1.1478
349.467	2.02297
349.681	1.4205
349.894	1.77872
350.107	3.26033
350.32	3.79272
350.534	1.17499
350.747	2.04169
350.96	1.62196
351.173	1.80909
351.386	2.05905
351.6	1.91073
351.813	1.81634
352.026	2.12894
352.239	1.32966
352.452	1.95164
352.665	2.961
352.878	2.20861
353.092	3.80533
353.305	2.97041
353.518	2.46367
353.731	1.65284
353.944	3.13558
354.157	1.84552
354.37	1.62389
354.583	1.5421
354.796	0.96745
355.009	2.96566
355.222	2.42104
355.435	2.2317
355.647	2.94837
355.86	1.59397
356.073	2.15034
356.286	1.82574
356.499	2.73985
356.712	2.56807
356.925	2.63953
357.138	2.77631
357.35	1.52277
357.563	1.92809
357.776	2.19319
357.989	1.9722
358.201	2.47839
358.414	2.27544
358.627	3.17566
358.84	2.03226
359.052	1.25313
359.265	1.54795
359.478	2.88601
359.69	0.33573
359.903	2.70043
360.116	2.83905
360.328	0.95923
360.541	2.78894
360.753	1.39798
360.966	1.71004
361.179	1.85838
361.391	1.71875
361.604	1.36605
361.816	1.72716
362.029	1.63329
362.241	1.45224
362.454	1.65182
362.666	1.36934
362.879	2.23685
363.091	1.7695
363.304	1.5263
363.516	1.88521
363.728	1.27444
363.941	2.39529
364.153	1.82198
364.366	0.59974
364.578	1.29355
364.79	2.20113
365.003	2.00172
365.215	1.58158
365.427	2.33654
365.639	2.72423
365.852	2.02169
366.064	3.69965
366.276	1.79808
366.488	2.35833
366.701	1.59006
366.913	1.86538
367.125	1.80872
367.337	1.3962
367.549	1.58227
367.762	2.03891
367.974	1.96946
368.186	1.46639
368.398	2.58657
368.61	2.4655
368.822	2.48186
369.034	2.01005
369.246	2.5229
369.458	4.16415
369.67	1.4362
369.882	3.28074
370.094	0.71569
370.306	3.176
370.518	1.79506
370.73	1.52405
370.942	1.55815
371.154	1.97673
371.366	1.59553
371.578	2.23402
371.79	1.4662
372.002	2.75063
372.214	3.34973
372.425	2.02443
372.637	2.89717
372.849	2.21499
373.061	0.6683
373.273	2.26932
373.484	2.23978
373.696	2.60665
373.908	0.61248
374.12	2.79609
374.331	2.16614
374.543	1.46244
374.755	1.28381
374.967	2.12894
375.178	2.47708
375.39	1.81179
375.602	2.04913
375.813	0.97495
376.025	1.18423
376.236	2.03138
376.448	2.13447
376.66	1.65894
376.871	1.68358
377.083	2.83688
377.294	3.01869
377.506	1.6012
377.717	2.88162
377.929	2.09571
378.14	1.50859
378.352	2.17061
378.563	2.17856
378.775	2.89787
378.986	1.26767
379.197	1.91094
379.409	1.42807
379.62	2.49095
379.832	2.21414
380.043	1.75251
380.254	1.96983
380.466	1.24148
380.677	3.93028
380.888	3.27634
381.1	3.65174
381.311	3.62283
381.522	1.99575
381.733	3.86946
381.945	1.87533
382.156	1.97593
382.367	1.57555
382.578	3.95296
382.789	3.74771
383.001	1.69353
383.212	2.96773
383.423	2.99493
383.634	2.832
383.845	2.42114
384.056	1.7377
384.267	2.08835
384.478	1.88832
384.69	1.26027
384.901	2.1979
385.112	2.26665
385.323	3.06134
385.534	2.31008
385.745	2.10303
385.956	2.21117
386.167	1.45968
386.378	2.3861
386.588	1.45181
386.799	1.50676
387.01	0.98472
387.221	2.50738
387.432	1.89678
387.643	3.19971
387.854	1.83764
388.065	1.78732
388.275	1.93873
388.486	1.71151
388.697	1.90886
388.908	1.74281
389.119	2.69217
389.329	3.05198
389.54	1.99836
389.751	2.22748
389.962	2.83874
390.172	2.09596
390.383	1.73509
390.594	1.5553
390.804	1.55671
391.015	1.68581
391.226	2.05923
391.436	2.24577
391.647	2.19239
391.858	2.34906
392.068	0.99772
392.279	1.27705
392.489	2.02104
392.7	2.72962
392.91	1.42349
393.121	1.46017
393.331	2.2438
393.542	2.73095
393.752	2.36547
393.963	2.0707
394.173	2.04168
394.384	2.26981
394.594	1.98379
394.804	1.29049
395.015	2.00556
395.225	2.27737
395.436	1.34794
395.646	2.38787
395.856	1.54366
396.067	1.14614
396.277	2.59
396.487	2.32135
396.697	2.12709
396.908	2.32486
397.118	2.37631
397.328	2.1935
397.538	2.6691
397.749	1.4163
397.959	2.52166
398.169	2.43675
398.379	1.19079
398.589	2.49727
398.8	2.04494
399.01	1.97662
399.22	1.78982
399.43	3.44967
399.64	1.79849
399.85	2.35433
400.06	2.00764
400.27	1.5512
400.48	1.98062
400.69	3.03059
400.9	1.69055
401.11	1.54257
401.32	2.52731
401.53	1.80135
401.74	3.05081
401.95	2.5162
402.16	1.38495
402.37	2.22181
402.58	1.67294
402.79	2.48218
403	2.72036
403.209	1.69503
403.419	2.70639
403.629	1.64702
403.839	2.61002
404.049	2.50942
404.258	1.69028
404.468	1.59783
404.678	2.21904
404.888	2.61089
405.097	1.5803
405.307	2.00171
405.517	2.38549
405.727	2.20618
405.936	1.82807
406.146	2.22682
406.356	2.88388
406.565	2.04784
406.775	1.76709
406.984	1.8007
407.194	3.14135
407.404	2.06964
407.613	2.41825
407.823	2.59756
408.032	2.69243
408.242	2.80747
408.451	1.84365
408.661	2.06788
408.87	3.30284
409.08	1.83477
409.289	2.384
409.499	2.30394
409.708	2.26224
409.918	1.0721
410.127	2.25162
410.336	3.10596
410.546	2.61696
410.755	2.017
410.964	2.07076
411.174	1.68818
411.383	2.49656
411.592	2.53584
411.802	1.57737
412.011	2.74367
412.22	2.21132
412.429	3.32414
412.639	3.17891
412.848	2.91055
413.057	3.05959
413.266	3.12987
413.475	2.30092
413.685	2.79731
413.894	2.84641
414.103	3.08629
414.312	2.79406
414.521	2.3094
414.73	2.39096
414.939	3.70728
415.148	2.65918
415.357	2.54212
415.566	2.18143
415.776	2.30193
415.985	2.19155
416.194	2.87253
416.403	3.41986
416.611	1.71085
416.82	2.09811
417.029	2.45085
417.238	2.04529
417.447	1.85834
417.656	2.23367
417.865	1.97419
418.074	2.17798
418.283	2.34665
418.492	2.91076
418.7	2.7007
418.909	3.38318
419.118	2.66166
419.327	2.86915
419.536	2.67211
419.744	2.4272
419.953	3.41477
420.162	3.40583
420.371	2.69055
420.579	2.71167
420.788	3.63711
420.997	3.50162
421.205	3.66423
421.414	3.4477
421.623	3.43834
421.831	3.18857
422.04	3.71281
422.249	3.00281
422.457	3.60171
422.666	2.98621
422.874	3.76391
423.083	3.77509
423.291	3.77876
423.5	3.4896
423.708	3.71497
423.917	4.01903
424.125	3.61704
424.334	3.42616
424.542	4.91106
424.751	4.37899
424.959	4.07734
425.167	4.43264
425.376	4.27151
425.584	3.56032
425.793	3.66789
426.001	3.0577
426.209	3.5219
426.418	2.81174
426.626	2.80092
426.834	2.6548
427.042	3.01013
