Data from WindowProjectSample_Transmission__2__00002.txt Node

Date: Sat May 03 14:51:53 EDT 2025
User: jessi
Spectrometer: SR400872
Trigger mode: 0
Integration Time (sec): 5.000000E-1
Scans to average: 6
Electric dark correction enabled: true
Nonlinearity correction enabled: true
Boxcar width: 0
XAxis mode: Wavelengths
Number of Pixels in Spectrum: 3648
>>>>>Begin Spectral Data<<<<<
184.909	-15031.88739
185.132	2424.46309
185.355	-2106.0488
185.578	13936.13798
185.801	-113.49374
186.024	10463.12073
186.247	627.53579
186.47	-943.43785
186.693	49.51029
186.916	-793.60912
187.139	6022.82944
187.362	1708.00506
187.585	14601.51074
187.808	3078.7996
188.031	-88.73122
188.254	4709.32937
188.476	-21065.15809
188.699	1766.56611
188.922	2336.90677
189.145	3355.1162
189.368	-462.94611
189.591	1458.07952
189.813	-6493.37931
190.036	2568.55255
190.259	1111.37392
190.482	-9337.70038
190.705	-3866.62291
190.927	1460.56606
191.15	-13871.4352
191.373	21167.43571
191.595	-2578.41211
191.818	2062.38244
192.041	-251.50586
192.263	1021.68924
192.486	-247.56479
192.709	-6886.15766
192.931	12140.2884
193.154	6243.44438
193.377	-12009.05822
193.599	-1610.22866
193.822	-967.1085
194.044	2068.26055
194.267	1089.81204
194.489	41.33938
194.712	1552.40118
194.934	93477.74744
195.157	1621.38372
195.379	867.3474
195.602	-4399.62391
195.824	1568.47486
196.047	-1183.48016
196.269	193097.52745
196.492	-2352.28481
196.714	4408.6505
196.936	3890.0236
197.159	2580.67081
197.381	6324.83724
197.604	266.97913
197.826	2400.32666
198.048	10103.65465
198.271	-19775.92721
198.493	2272.58183
198.715	2221.37452
198.938	-623.44098
199.16	2555.39729
199.382	1557.2702
199.604	-2998.32982
199.827	-5373.61817
200.049	-2316.70104
200.271	3943.08462
200.493	10107.99002
200.715	6146.76044
200.938	-10607.19168
201.16	-13811.09512
201.382	899.87389
201.604	-1108.89061
201.826	2410.22291
202.048	2785.38653
202.27	5179.95105
202.492	-3005.1912
202.715	-1365.70495
202.937	-2322.87445
203.159	1398.17524
203.381	2038.19527
203.603	24189.45234
203.825	3126.38487
204.047	-12180.75682
204.269	5342.79585
204.491	-829.0318
204.713	2081.11886
204.935	-20017.31442
205.156	-2122.78417
205.378	6871.80334
205.6	-1767.19156
205.822	2705.4549
206.044	-1089.02889
206.266	985.80064
206.488	1035.24809
206.71	2190.79447
206.932	-3679.94611
207.153	-1670.28056
207.375	-8431.28522
207.597	18509.23695
207.819	2062.46794
208.041	2425.94872
208.262	1526.49982
208.484	-1043.61354
208.706	-1117.63364
208.927	5012.43515
209.149	872.88617
209.371	-2806.63335
209.593	-745.45971
209.814	-2436.38435
210.036	-1006.4685
210.258	-3830.65469
210.479	-3899.01087
210.701	-4918.07161
210.922	5159.49536
211.144	-2453.47679
211.366	1264.5806
211.587	-23706.66447
211.809	-2182.13627
212.03	-1133.93991
212.252	704.07836
212.473	-4303.76688
212.695	1525.00172
212.916	-1621.48494
213.138	573.40278
213.359	-1077.80623
213.581	14163.61597
213.802	-290.22039
214.024	-1976.64633
214.245	-9188.80611
214.466	-197.91746
214.688	-2389.74181
214.909	-1586.85692
215.131	10210.55604
215.352	2629.79258
215.573	54266.16044
215.795	4978.73189
216.016	6185.07055
216.237	-722.78091
216.459	2351.13278
216.68	7164.92233
216.901	-4136.80598
217.122	4904.14892
217.344	1513.75346
217.565	-4793.58629
217.786	2245.50535
218.007	636.91522
218.228	825.17352
218.45	-2115.27668
218.671	2321.41482
218.892	2242.02443
219.113	963.1465
219.334	-331.80152
219.555	6062.53003
219.776	4328.94557
219.997	1468.21356
220.219	792.79106
220.44	1019.10539
220.661	1151.55136
220.882	5343.21502
221.103	3143.50114
221.324	1610.73137
221.545	67764.40653
221.766	-5827.54243
221.987	-780.70242
222.208	-2666.50511
222.429	5405.79626
222.65	-1700.76277
222.87	-1999.59515
223.091	3440.80591
223.312	-1985.2692
223.533	-4643.48852
223.754	2120.94152
223.975	1332.21292
224.196	-3578.60569
224.417	79780.45862
224.637	3191.60424
224.858	98.82087
225.079	3032.67422
225.3	2439.74625
225.521	4132.12441
225.741	2144.45469
225.962	861.60666
226.183	8637.34571
226.404	1303.67808
226.624	686.82988
226.845	820.58229
227.066	853.92617
227.286	516.06006
227.507	296.79774
227.728	192.68839
227.948	300.36246
228.169	90.09729
228.389	88.16086
228.61	51.25019
228.831	65.07374
229.051	7.69789
229.272	40.3365
229.492	56.35036
229.713	17.08793
229.933	42.87137
230.154	33.58275
230.374	58.53664
230.595	48.00938
230.815	33.24769
231.036	51.32132
231.256	-9.39893
231.477	92.141
231.697	50.13172
231.917	50.08045
232.138	79.00943
232.358	176.18506
232.579	153.79926
232.799	18.32905
233.019	140.10676
233.24	157.16937
233.46	58.72124
233.68	99.93162
233.901	62.24026
234.121	39.72424
234.341	13.41223
234.561	-1.05206
234.782	23.94031
235.002	98.8339
235.222	-4.17465
235.442	74.81092
235.662	40.98465
235.883	87.02277
236.103	74.43639
236.323	61.44379
236.543	35.08957
236.763	55.96049
236.983	67.00087
237.203	65.11553
237.423	87.87932
237.643	134.49723
237.864	129.19391
238.084	24.71593
238.304	38.60835
238.524	69.29586
238.744	54.42806
238.964	100.86978
239.184	84.13549
239.404	96.0614
239.624	44.48415
239.843	86.48014
240.063	43.87969
240.283	29.11566
240.503	33.91478
240.723	29.1553
240.943	16.13011
241.163	25.29639
241.383	17.28374
241.603	8.03582
241.822	11.16624
242.042	7.90467
242.262	9.80644
242.482	10.33463
242.702	12.94922
242.921	4.34595
243.141	8.68421
243.361	8.24816
243.581	11.76805
243.8	11.16057
244.02	6.37916
244.24	14.48336
244.459	14.18657
244.679	26.7141
244.899	16.43867
245.118	18.50142
245.338	16.25594
245.558	17.83827
245.777	10.99542
245.997	13.19742
246.216	12.30654
246.436	6.0414
246.655	4.8492
246.875	3.57777
247.094	7.49119
247.314	2.58542
247.533	4.38312
247.753	5.81237
247.972	4.61185
248.192	1.55164
248.411	2.55093
248.631	5.30748
248.85	6.38145
249.07	4.65142
249.289	9.55723
249.508	6.8185
249.728	10.51782
249.947	11.10071
250.166	12.00187
250.386	6.7153
250.605	9.43182
250.824	15.40467
251.044	11.27798
251.263	36.0028
251.482	18.37269
251.701	16.59967
251.921	0.57325
252.14	4.9447
252.359	5.57454
252.578	13.17023
252.798	4.49218
253.017	12.80537
253.236	6.6866
253.455	8.2884
253.674	16.48529
253.893	7.71712
254.112	10.47556
254.331	17.35868
254.551	15.57535
254.77	6.44569
254.989	20.30243
255.208	18.51716
255.427	22.74573
255.646	19.5148
255.865	34.13302
256.084	12.24506
256.303	14.43851
256.522	20.19012
256.741	4.57572
256.96	5.20567
257.179	12.76343
257.397	15.3717
257.616	7.75407
257.835	8.35935
258.054	20.28052
258.273	13.35231
258.492	14.99782
258.711	8.40641
258.93	3.30992
259.148	4.86415
259.367	6.06872
259.586	7.13746
259.805	3.38989
260.023	6.66355
260.242	5.17118
260.461	3.47977
260.68	1.84561
260.898	5.93916
261.117	1.87883
261.336	1.71381
261.554	5.60537
261.773	5.23114
261.992	1.12772
262.21	5.2885
262.429	6.03393
262.648	11.04323
262.866	12.73236
263.085	7.42358
263.303	7.55337
263.522	12.11042
263.74	12.49426
263.959	22.30721
264.178	11.4867
264.396	9.34368
264.615	7.15216
264.833	17.53995
265.051	14.78753
265.27	15.00083
265.488	16.40762
265.707	9.73866
265.925	15.61595
266.144	6.61916
266.362	8.36135
266.58	8.43467
266.799	6.99598
267.017	8.32171
267.235	7.69721
267.454	4.81297
267.672	2.60579
267.89	6.26289
268.109	6.9595
268.327	5.85215
268.545	1.42676
268.763	6.48238
268.982	2.09133
269.2	7.45103
269.418	4.77797
269.636	3.5086
269.854	5.59378
270.073	4.72695
270.291	2.33585
270.509	2.42154
270.727	5.67252
270.945	10.16684
271.163	10.142
271.381	2.35825
271.599	4.38864
271.817	7.25026
272.036	2.48125
272.254	4.2975
272.472	3.5334
272.69	3.69742
272.908	3.22314
273.126	6.26658
273.344	7.70217
273.562	2.76513
273.779	3.78534
273.997	5.9505
274.215	6.40767
274.433	4.5494
274.651	6.73089
274.869	7.0214
275.087	4.08054
275.305	6.56454
275.523	2.91726
275.74	4.42913
275.958	8.33637
276.176	11.81012
276.394	3.41074
276.612	5.06036
276.829	4.50493
277.047	3.63554
277.265	4.43811
277.483	5.60265
277.7	6.06068
277.918	5.33171
278.136	9.2593
278.353	4.72627
278.571	1.84513
278.789	7.68655
279.006	1.6758
279.224	4.46514
279.442	7.33284
279.659	5.37067
279.877	3.29861
280.094	8.23293
280.312	1.36832
280.529	4.68417
280.747	1.04296
280.964	3.74264
281.182	8.78068
281.399	3.99179
281.617	5.47357
281.834	3.67551
282.052	3.51889
282.269	4.65986
282.487	3.59405
282.704	2.86853
282.921	3.58478
283.139	4.50882
283.356	6.53444
283.574	4.96102
283.791	2.8978
284.008	7.61922
284.226	3.81937
284.443	4.65751
284.66	5.99872
284.877	4.79988
285.095	3.27101
285.312	2.03556
285.529	1.49231
285.746	1.22339
285.964	2.82875
286.181	1.69464
286.398	3.08358
286.615	4.03617
286.832	3.57193
287.05	1.16063
287.267	2.42825
287.484	3.2922
287.701	4.04546
287.918	3.89015
288.135	4.31783
288.352	1.98721
288.569	2.07426
288.786	3.63054
289.003	2.72513
289.22	4.53667
289.437	2.71991
289.654	4.31867
289.871	4.66427
290.088	4.46695
290.305	3.20724
290.522	2.67338
290.739	3.05082
290.956	4.7182
291.173	5.82502
291.39	4.95606
291.607	3.70635
291.824	2.71955
292.04	1.84035
292.257	4.15425
292.474	4.73898
292.691	3.07882
292.908	1.65094
293.125	2.75058
293.341	1.65199
293.558	7.85582
293.775	2.82313
293.992	3.31014
294.208	1.03951
294.425	1.83313
294.642	2.71013
294.858	3.67117
295.075	0.77615
295.292	3.02891
295.508	3.44502
295.725	5.64518
295.942	2.67298
296.158	1.79055
296.375	3.08238
296.591	2.19815
296.808	2.50947
297.024	2.77828
297.241	3.36165
297.458	3.59453
297.674	0.27201
297.891	2.81617
298.107	2.02224
298.323	1.65999
298.54	4.40411
298.756	1.96503
298.973	0.66115
299.189	4.26564
299.406	1.99162
299.622	4.35009
299.838	4.29219
300.055	3.81535
300.271	1.04576
300.487	1.41529
300.704	1.88166
300.92	1.12243
301.136	6.16527
301.353	4.26037
301.569	2.71578
301.785	3.56014
302.001	4.3279
302.218	3.39866
302.434	3.3975
302.65	1.07461
302.866	2.22727
303.083	5.71116
303.299	5.46391
303.515	2.89528
303.731	3.17381
303.947	0.94745
304.163	1.70993
304.379	3.43476
304.595	3.98072
304.812	1.98599
305.028	1.54555
305.244	2.45893
305.46	4.33302
305.676	4.32447
305.892	5.10754
306.108	3.11156
306.324	2.17722
306.54	5.59021
306.756	3.93704
306.972	4.05429
307.187	2.59444
307.403	5.20206
307.619	2.26485
307.835	4.56807
308.051	5.0899
308.267	0.93339
308.483	4.18747
308.699	3.73112
308.914	3.08608
309.13	2.77793
309.346	0.7499
309.562	1.6191
309.778	0.93367
309.993	3.79913
310.209	2.69715
310.425	1.13534
310.641	2.40198
310.856	1.34285
311.072	1.35698
311.288	2.87927
311.503	3.09075
311.719	0.49573
311.935	0.37629
312.15	3.15671
312.366	2.77362
312.581	3.8501
312.797	3.12135
313.013	3.98179
313.228	2.22738
313.444	3.15763
313.659	2.09539
313.875	3.31299
314.09	2.74935
314.306	4.56866
314.521	4.24077
314.737	3.89113
314.952	3.66838
315.168	2.91936
315.383	3.70057
315.599	2.68585
315.814	2.41303
316.029	4.02098
316.245	0.86294
316.46	1.13691
316.675	4.98527
316.891	6.02889
317.106	6.88534
317.321	4.06102
317.537	3.79098
317.752	4.16842
317.967	4.33675
318.183	1.99751
318.398	2.85828
318.613	4.69915
318.828	5.42853
319.043	4.18219
319.259	2.30439
319.474	3.83478
319.689	4.60937
319.904	1.05611
320.119	4.14148
320.334	3.6823
320.549	2.56917
320.765	5.1513
320.98	3.75432
321.195	4.55102
321.41	2.86142
321.625	4.57881
321.84	6.1439
322.055	5.88596
322.27	2.08786
322.485	1.35783
322.7	3.42207
322.915	4.97136
323.13	1.76287
323.345	4.94288
323.56	4.44437
323.775	4.08475
323.989	4.11641
324.204	3.25185
324.419	4.627
324.634	1.05333
324.849	2.99704
325.064	7.27025
325.279	4.70334
325.493	3.96019
325.708	4.42389
325.923	2.19263
326.138	2.02064
326.352	5.48105
326.567	4.60602
326.782	2.838
326.997	2.02547
327.211	4.10815
327.426	4.11836
327.641	2.32541
327.855	0.80354
328.07	3.90179
328.285	5.43788
328.499	2.53327
328.714	4.36222
328.928	4.63258
329.143	3.07419
329.358	4.78773
329.572	5.00412
329.787	5.0427
330.001	6.84131
330.216	1.16711
330.43	5.762
330.645	5.81175
330.859	4.61943
331.074	2.05044
331.288	3.65396
331.503	5.50005
331.717	1.44353
331.931	3.32043
332.146	3.37078
332.36	5.47581
332.575	4.18502
332.789	3.33369
333.003	3.15816
333.218	4.24881
333.432	2.74373
333.646	4.16672
333.86	5.43281
334.075	5.77952
334.289	2.91947
334.503	2.10155
334.717	4.32877
334.932	4.21607
335.146	5.20413
335.36	2.88375
335.574	4.30828
335.788	4.08575
336.003	5.26099
336.217	4.51462
336.431	4.25191
336.645	2.55653
336.859	1.35081
337.073	2.75306
337.287	3.6641
337.501	1.87944
337.715	3.33177
337.929	4.39017
338.143	1.76392
338.357	2.9091
338.571	1.9964
338.785	3.95334
338.999	2.64696
339.213	2.59022
339.427	1.13488
339.641	4.9713
339.855	2.74831
340.069	2.40251
340.283	4.75425
340.497	5.70551
340.711	3.79056
340.924	2.41839
341.138	1.91441
341.352	1.26708
341.566	3.48601
341.78	1.13757
341.993	2.44537
342.207	1.70512
342.421	3.35928
342.635	3.52365
342.848	2.46318
343.062	0.29795
343.276	2.44714
343.49	6.41171
343.703	2.31351
343.917	4.27943
344.131	4.30202
344.344	2.15766
344.558	2.44203
344.771	2.13451
344.985	5.22409
345.199	5.54123
345.412	3.31557
345.626	3.62103
345.839	0.77149
346.053	1.62141
346.266	1.75166
346.48	4.37285
346.693	3.57978
346.907	4.10018
347.12	1.87413
347.334	3.41401
347.547	3.63272
347.76	2.50692
347.974	4.5515
348.187	3.70118
348.401	2.90299
348.614	2.74371
348.827	2.72298
349.041	4.02874
349.254	0.85921
349.467	2.75482
349.681	1.15811
349.894	2.17118
350.107	4.76546
350.32	5.08308
350.534	0.96342
350.747	2.65644
350.96	1.94066
351.173	2.09506
351.386	2.60483
351.6	2.6284
351.813	1.98188
352.026	3.01189
352.239	1.30121
352.452	2.4384
352.665	3.59134
352.878	2.77341
353.092	6.1075
353.305	3.71879
353.518	3.36532
353.731	1.96883
353.944	4.81781
354.157	1.82312
354.37	1.68478
354.583	1.33933
354.796	0.77089
355.009	4.38717
355.222	2.46693
355.435	2.96051
355.647	4.42304
355.86	1.49331
356.073	2.5592
356.286	2.20874
356.499	3.80337
356.712	3.24997
356.925	3.59976
357.138	4.1756
357.35	1.56088
357.563	2.30231
357.776	2.75265
357.989	1.95667
358.201	3.55891
358.414	2.54703
358.627	4.30258
358.84	2.22422
359.052	1.40146
359.265	1.24828
359.478	4.20185
359.69	-0.68778
359.903	3.21171
360.116	3.45549
360.328	0.44475
360.541	3.63798
360.753	1.381
360.966	1.84524
361.179	1.71654
361.391	1.82098
361.604	1.17978
361.816	1.7771
362.029	1.40096
362.241	1.30991
362.454	1.7076
362.666	1.39308
362.879	2.34971
363.091	1.95182
363.304	1.54884
363.516	2.36813
363.728	0.86194
363.941	3.23191
364.153	1.40218
364.366	-0.25406
364.578	1.27986
364.79	2.91221
365.003	2.06361
365.215	2.09506
365.427	2.99931
365.639	4.06102
365.852	2.71472
366.064	5.29023
366.276	1.79227
366.488	3.06155
366.701	1.63618
366.913	2.20705
367.125	2.26217
367.337	1.57455
367.549	1.75742
367.762	2.35974
367.974	2.51687
368.186	1.33647
368.398	3.98059
368.61	3.32827
368.822	3.10486
369.034	2.47328
369.246	3.30304
369.458	5.41911
369.67	1.32863
369.882	4.8726
370.094	0.19578
370.306	4.68855
370.518	1.89776
370.73	1.26894
370.942	1.40459
371.154	1.80577
371.366	1.40622
371.578	2.5156
371.79	1.17323
372.002	4.10173
372.214	4.35327
372.425	2.65751
372.637	3.97915
372.849	2.19157
373.061	-0.16185
373.273	2.75267
373.484	2.99474
373.696	3.5674
373.908	-0.26269
374.12	3.52492
374.331	2.90954
374.543	1.27895
374.755	1.21034
374.967	2.76613
375.178	3.2408
375.39	2.1309
375.602	2.56972
375.813	0.93214
376.025	0.56162
376.236	2.11762
376.448	2.11288
376.66	1.54853
376.871	1.6938
377.083	3.72135
377.294	3.4904
377.506	1.6306
377.717	3.78564
377.929	2.26833
378.14	1.24313
378.352	2.77477
378.563	2.71948
378.775	3.81257
378.986	1.42746
379.197	2.18275
379.409	1.79201
379.62	3.0744
379.832	2.93659
380.043	1.79879
380.254	2.22942
380.466	0.69554
380.677	5.78011
380.888	4.96782
381.1	5.33397
381.311	4.76923
381.522	2.14677
381.733	5.72979
381.945	2.02025
382.156	2.67765
382.367	1.78872
382.578	5.76899
382.789	5.38336
383.001	2.01498
383.212	3.53891
383.423	4.00712
383.634	3.42468
383.845	2.52534
384.056	1.69915
384.267	1.90219
384.478	1.86961
384.69	0.66119
384.901	2.8438
385.112	2.71949
385.323	3.84547
385.534	2.78015
385.745	2.74763
385.956	2.83002
386.167	0.99073
386.378	2.69463
386.588	0.69043
386.799	1.23903
387.01	0.26566
387.221	3.26763
387.432	1.74269
387.643	4.58247
387.854	2.16647
388.065	1.70029
388.275	1.95843
388.486	1.95319
388.697	1.8942
388.908	1.98874
389.119	3.76214
389.329	4.19552
389.54	2.16294
389.751	2.93128
389.962	3.3881
390.172	2.39037
390.383	1.47747
390.594	1.41993
390.804	1.12183
391.015	1.12155
391.226	2.11013
391.436	2.66795
391.647	2.57348
391.858	2.68332
392.068	0.09462
392.279	0.58414
392.489	2.00368
392.7	3.37248
392.91	0.85684
393.121	1.30177
393.331	2.5206
393.542	3.28703
393.752	2.54577
393.963	2.05067
394.173	1.79235
394.384	2.5002
394.594	1.77475
394.804	0.81348
395.015	2.15951
395.225	2.61826
395.436	0.93599
395.646	2.83946
395.856	0.60055
396.067	0.78013
396.277	3.33424
396.487	2.39322
396.697	1.60539
396.908	3.1157
397.118	2.94177
397.328	2.22403
397.538	3.38378
397.749	1.18795
397.959	3.02273
398.169	3.27149
398.379	0.73047
398.589	2.7766
398.8	2.22133
399.01	1.30597
399.22	2.17362
399.43	4.75065
399.64	1.40169
399.85	3.01799
400.06	1.60102
400.27	1.72398
400.48	2.09643
400.69	3.99727
400.9	1.58673
401.11	1.30279
401.32	3.22905
401.53	1.46598
401.74	3.97599
401.95	3.23462
402.16	0.70151
402.37	2.26493
402.58	1.35521
402.79	2.86285
403	3.02605
403.209	1.63
403.419	3.14539
403.629	1.44774
403.839	2.80335
404.049	3.04083
404.258	1.16064
404.468	1.04809
404.678	2.69792
404.888	2.81525
405.097	1.09472
405.307	2.02361
405.517	2.56857
405.727	2.17307
405.936	1.89107
406.146	2.46088
406.356	3.76734
406.565	2.26185
406.775	1.31896
406.984	1.54226
407.194	4.16821
407.404	2.29604
407.613	2.6716
407.823	3.39218
408.032	3.24376
408.242	3.42963
408.451	1.85866
408.661	2.05284
408.87	4.14519
409.08	1.72687
409.289	2.85644
409.499	2.49665
409.708	2.49525
409.918	0.24234
410.127	2.37676
410.336	4.16286
410.546	3.20989
410.755	1.90765
410.964	1.90493
411.174	1.33978
411.383	3.09809
411.592	2.86847
411.802	1.15317
412.011	3.59785
412.22	2.3783
412.429	4.36797
412.639	4.01798
412.848	4.04087
413.057	4.51227
413.266	3.60826
413.475	2.51687
413.685	3.50789
413.894	3.52542
414.103	4.03024
414.312	3.41776
414.521	2.31425
414.73	3.13524
414.939	5.06017
415.148	3.05264
415.357	2.97611
415.566	2.32077
415.776	2.11053
415.985	2.06029
416.194	3.31996
416.403	4.66138
416.611	1.13412
416.82	1.9956
417.029	3.0241
417.238	1.82303
417.447	1.74186
417.656	2.13295
417.865	1.9315
418.074	2.34612
418.283	2.74261
418.492	3.38127
418.7	3.43221
418.909	4.39262
419.118	2.77353
419.327	3.31906
419.536	2.86667
419.744	2.28457
419.953	3.85692
420.162	3.62616
420.371	2.24099
420.579	2.23483
420.788	3.33887
420.997	3.39442
421.205	3.22615
421.414	3.08082
421.623	3.23429
421.831	2.68963
422.04	3.47427
422.249	2.55944
422.457	3.33103
422.666	2.68849
422.874	3.90312
423.083	3.91813
423.291	3.71266
423.5	3.32543
423.708	3.53596
423.917	4.10112
424.125	3.39139
424.334	2.92361
424.542	5.04163
424.751	4.22186
424.959	3.96794
425.167	4.69912
425.376	4.47833
425.584	3.79865
425.793	4.23177
426.001	3.17652
426.209	4.48801
426.418	3.22723
426.626	3.21992
