Data from WindowProjectSample_Transmission__79__00079.txt Node

Date: Sat May 03 18:02:49 EDT 2025
User: jessi
Spectrometer: SR400872
Trigger mode: 0
Integration Time (sec): 5.000010E-1
Scans to average: 6
Electric dark correction enabled: true
Nonlinearity correction enabled: true
Boxcar width: 0
XAxis mode: Wavelengths
Number of Pixels in Spectrum: 3648
>>>>>Begin Spectral Data<<<<<
184.909	3383.36866
185.132	3873.64501
185.355	-4090.43031
185.578	4158.65976
185.801	-390.82917
186.024	-4824.63343
186.247	1630.72676
186.47	577.54364
186.693	-77.37377
186.916	2235.30295
187.139	3177.081
187.362	-1869.37501
187.585	5331.55027
187.808	23377.75326
188.031	28.12092
188.254	-3981.37035
188.476	559.58308
188.699	3546.99967
188.922	-191.14363
189.145	-6782.87103
189.368	-423.87642
189.591	-611.44917
189.813	-3229.85913
190.036	970.21484
190.259	-7723.24351
190.482	1352.63766
190.705	3993.52194
190.927	-2003.73984
191.15	-6457.21482
191.373	6014.31197
191.595	-1176.81034
191.818	2057.26948
192.041	-784.90451
192.263	2036.45016
192.486	-2007.34872
192.709	-22648.08695
192.931	1867.29005
193.154	-3803.04999
193.377	-2245.1337
193.599	4858.97753
193.822	1825.59561
194.044	6002.76313
194.267	932.67694
194.489	-287.29206
194.712	2632.97413
194.934	8522.32449
195.157	-25019.20956
195.379	2274.42229
195.602	1777.51479
195.824	1353.87414
196.047	44665.30207
196.269	3284.69371
196.492	-1834.53621
196.714	-1229.27284
196.936	1839.41656
197.159	-12716.70984
197.381	-320.51993
197.604	-5789.26948
197.826	-17473.7537
198.048	9437.48093
198.271	-8527.55235
198.493	4635.99705
198.715	3454.82487
198.938	-707.71742
199.16	-17516.85765
199.382	1182.59742
199.604	-1770.45217
199.827	-3579.58414
200.049	2447.75716
200.271	-7128.54153
200.493	-48912.28476
200.715	3503.2286
200.938	-3082.60794
201.16	-2582.04765
201.382	-1606.83161
201.604	-3120.52604
201.826	3306.96093
202.048	3539.01501
202.27	-1041.93061
202.492	-3282.95992
202.715	-1188.6058
202.937	-16041.51963
203.159	2442.46195
203.381	2610.739
203.603	-2952.27629
203.825	-872.13435
204.047	56769.72893
204.269	-1361.96581
204.491	-1251.10511
204.713	65266.77667
204.935	-3423.43277
205.156	-885.10735
205.378	-4505.97507
205.6	-1186.76144
205.822	2376.49612
206.044	-353.63865
206.266	6495.59004
206.488	787.34678
206.71	3361.40208
206.932	1454.09223
207.153	-1667.31356
207.375	-2736.56184
207.597	3724.9899
207.819	29678.26432
208.041	3926.93483
208.262	-1660.63587
208.484	-1021.997
208.706	-1450.77177
208.927	2978.19706
209.149	4677.11647
209.371	-5215.51067
209.593	310.07141
209.814	-30328.84321
210.036	2413.73504
210.258	-744.04932
210.479	3909.89723
210.701	-3569.13281
210.922	-11239.22784
211.144	-865.83682
211.366	5072.82421
211.587	-1947.74323
211.809	-4971.78464
212.03	-869.97543
212.252	-632.27275
212.473	3289.93823
212.695	-679.20996
212.916	-876.19438
213.138	534.24829
213.359	-1344.18118
213.581	13327.53306
213.802	-1747.75901
214.024	-2549.52087
214.245	-6443.44927
214.466	-258.33735
214.688	-2888.87651
214.909	-18914.57701
215.131	-4553.66683
215.352	-2523.90863
215.573	11152.74188
215.795	1632.37742
216.016	6598.63151
216.237	-521.2698
216.459	6711.07354
216.68	-3336.9566
216.901	-2870.01393
217.122	-2024.86031
217.344	-6848.02863
217.565	-2844.15647
217.786	2295.64924
218.007	1872.48603
218.228	-502.14747
218.45	-4560.90862
218.671	1590.1514
218.892	3546.39065
219.113	1569.82662
219.334	425.67041
219.555	-6852.87023
219.776	12299.04793
219.997	3937.85478
220.219	1759.92792
220.44	1082.56187
220.661	991.67667
220.882	-2679.6145
221.103	-969.39434
221.324	2476.81385
221.545	3057.20086
221.766	-3332.1139
221.987	-466.9575
222.208	-10628.7739
222.429	167021.67297
222.65	-253.47273
222.87	-10008.70625
223.091	2682.58186
223.312	-1272.77339
223.533	2694.51833
223.754	2070.87599
223.975	2761.12074
224.196	-6313.21803
224.417	-2569.06086
224.637	7646.43646
224.858	1382.05658
225.079	1256.30621
225.3	1112.36634
225.521	4839.93462
225.741	866.80899
225.962	1157.02379
226.183	-665.28268
226.404	1429.51582
226.624	1141.42416
226.845	1591.11343
227.066	861.28539
227.286	603.88817
227.507	194.84988
227.728	197.48404
227.948	276.3181
228.169	85.95229
228.389	86.2594
228.61	46.80602
228.831	66.19438
229.051	8.19726
229.272	35.48464
229.492	51.77158
229.713	15.66844
229.933	39.68789
230.154	33.45905
230.374	54.50357
230.595	41.26709
230.815	27.96813
231.036	40.36364
231.256	-5.58406
231.477	77.43057
231.697	43.59641
231.917	46.94612
232.138	63.27074
232.358	126.79149
232.579	127.21775
232.799	18.35697
233.019	107.18814
233.24	145.28527
233.46	44.21478
233.68	74.47684
233.901	51.63753
234.121	36.88585
234.341	12.83496
234.561	-2.62336
234.782	24.77338
235.002	78.64385
235.222	-2.67971
235.442	70.79393
235.662	34.22433
235.883	79.26546
236.103	64.35982
236.323	44.49591
236.543	33.86731
236.763	50.38226
236.983	52.38925
237.203	50.16486
237.423	73.51714
237.643	104.53166
237.864	88.75854
238.084	24.39991
238.304	38.29816
238.524	59.18985
238.744	42.75316
238.964	73.56513
239.184	69.36894
239.404	75.63564
239.624	39.70539
239.843	64.92567
240.063	35.1046
240.283	27.57763
240.503	27.09663
240.723	28.18156
240.943	14.65302
241.163	20.1941
241.383	15.19239
241.603	6.74852
241.822	9.2983
242.042	6.77499
242.262	8.38755
242.482	9.2345
242.702	11.42657
242.921	3.42061
243.141	8.48118
243.361	6.91929
243.581	9.98083
243.8	8.93149
244.02	5.932
244.24	10.72537
244.459	10.78219
244.679	20.52296
244.899	13.73794
245.118	16.17911
245.338	13.05736
245.558	15.36647
245.777	9.0284
245.997	10.48515
246.216	10.65396
246.436	5.82811
246.655	4.41551
246.875	3.51585
247.094	6.49507
247.314	2.22813
247.533	3.55442
247.753	4.84987
247.972	3.48048
248.192	1.34996
248.411	2.10564
248.631	4.24786
248.85	5.04018
249.07	4.12576
249.289	6.98353
249.508	5.37033
249.728	7.92892
249.947	8.49398
250.166	9.41382
250.386	5.66157
250.605	8.0601
250.824	12.0602
251.044	9.01112
251.263	27.85469
251.482	14.83565
251.701	13.99024
251.921	0.46894
252.14	4.59823
252.359	4.71649
252.578	11.41488
252.798	3.50308
253.017	9.65461
253.236	5.58525
253.455	6.43473
253.674	13.41596
253.893	5.87745
254.112	9.17991
254.331	12.84378
254.551	10.9628
254.77	5.00883
254.989	16.65548
255.208	13.37503
255.427	16.37397
255.646	14.19617
255.865	24.49339
256.084	9.55513
256.303	13.11496
256.522	15.50033
256.741	3.24802
256.96	5.20498
257.179	9.0664
257.397	12.64946
257.616	6.35257
257.835	7.81234
258.054	16.46083
258.273	10.34658
258.492	12.13802
258.711	6.79254
258.93	3.23605
259.148	4.36852
259.367	4.51729
259.586	5.79918
259.805	2.72094
260.023	5.19768
260.242	4.08679
260.461	2.98809
260.68	1.73003
260.898	4.83099
261.117	1.6629
261.336	1.10274
261.554	4.05916
261.773	4.08186
261.992	0.9658
262.21	4.01562
262.429	4.81076
262.648	8.06647
262.866	9.20652
263.085	6.543
263.303	5.56872
263.522	9.48071
263.74	10.09189
263.959	16.34571
264.178	8.14103
264.396	7.88416
264.615	5.45847
264.833	13.00823
265.051	11.03801
265.27	10.8491
265.488	12.30982
265.707	7.51862
265.925	12.33201
266.144	5.51621
266.362	7.68505
266.58	6.59719
266.799	5.22507
267.017	6.59363
267.235	6.02843
267.454	3.6869
267.672	2.12971
267.89	4.77049
268.109	5.51686
268.327	4.91218
268.545	1.15468
268.763	5.29363
268.982	2.14699
269.2	5.70246
269.418	3.44747
269.636	2.56132
269.854	4.93493
270.073	4.01377
270.291	1.82447
270.509	1.86506
270.727	4.89727
270.945	7.88538
271.163	8.03355
271.381	1.80531
271.599	3.39919
271.817	5.84047
272.036	2.1486
272.254	3.41965
272.472	2.93643
272.69	2.8678
272.908	2.65465
273.126	4.81045
273.344	6.14362
273.562	1.94438
273.779	2.71424
273.997	4.14348
274.215	4.95829
274.433	3.35405
274.651	5.07411
274.869	5.27469
275.087	3.09523
275.305	4.66222
275.523	2.66411
275.74	3.618
275.958	5.92099
276.176	8.72925
276.394	2.95345
276.612	4.27396
276.829	3.49066
277.047	3.15055
277.265	3.35003
277.483	3.95259
277.7	5.06753
277.918	3.68765
278.136	7.00615
278.353	3.82867
278.571	1.81301
278.789	5.91355
279.006	1.00842
279.224	3.35807
279.442	5.44591
279.659	4.00637
279.877	2.749
280.094	6.04859
280.312	1.29781
280.529	4.00062
280.747	1.46666
280.964	3.03985
281.182	6.63549
281.399	2.97134
281.617	4.63534
281.834	3.05854
282.052	2.25629
282.269	3.53319
282.487	2.59661
282.704	2.17099
282.921	2.50313
283.139	3.59071
283.356	4.73855
283.574	3.92923
283.791	2.07793
284.008	5.68803
284.226	3.22161
284.443	3.59269
284.66	4.7281
284.877	3.82788
285.095	2.59973
285.312	1.83163
285.529	1.31764
285.746	0.99548
285.964	2.24426
286.181	1.45896
286.398	2.29662
286.615	3.04819
286.832	2.99858
287.05	0.99098
287.267	1.93594
287.484	2.14368
287.701	3.36115
287.918	2.84543
288.135	2.99884
288.352	1.6031
288.569	1.79615
288.786	2.61498
289.003	2.226
289.22	3.21648
289.437	1.99699
289.654	3.32662
289.871	3.44367
290.088	3.43914
290.305	2.46595
290.522	1.91958
290.739	2.41253
290.956	3.54057
291.173	3.92219
291.39	3.78636
291.607	2.67861
291.824	2.19759
292.04	1.28376
292.257	3.25751
292.474	3.68871
292.691	2.33069
292.908	1.22337
293.125	2.0778
293.341	1.19045
293.558	5.84876
293.775	2.17496
293.992	2.27214
294.208	1.1767
294.425	1.56036
294.642	1.98177
294.858	3.27999
295.075	0.8608
295.292	2.28377
295.508	2.67766
295.725	4.15496
295.942	2.07756
296.158	1.4155
296.375	2.49891
296.591	1.81228
296.808	2.02026
297.024	2.19816
297.241	2.4245
297.458	2.66938
297.674	0.31328
297.891	2.23807
298.107	1.60222
298.323	1.28624
298.54	3.01653
298.756	1.44658
298.973	0.77637
299.189	3.16965
299.406	1.30146
299.622	3.23038
299.838	3.32845
300.055	2.973
300.271	0.80148
300.487	0.96871
300.704	1.3522
300.92	1.0313
301.136	4.49617
301.353	2.99449
301.569	2.32845
301.785	2.52864
302.001	3.18696
302.218	2.75896
302.434	2.78624
302.65	0.7184
302.866	1.83582
303.083	4.41167
303.299	4.22636
303.515	2.06619
303.731	2.49779
303.947	0.8712
304.163	1.47158
304.379	2.49954
304.595	2.86482
304.812	1.65976
305.028	1.59562
305.244	1.92838
305.46	3.12018
305.676	3.20719
305.892	3.75218
306.108	2.46742
306.324	1.76812
306.54	4.26702
306.756	2.83887
306.972	2.81791
307.187	1.96271
307.403	3.74362
307.619	1.58474
307.835	3.34407
308.051	3.73381
308.267	0.88286
308.483	3.30158
308.699	2.78888
308.914	2.40463
309.13	2.12245
309.346	0.71373
309.562	1.299
309.778	0.66193
309.993	2.70996
310.209	2.14184
310.425	0.90461
310.641	2.00237
310.856	1.14178
311.072	0.97605
311.288	1.89113
311.503	2.45054
311.719	0.49067
311.935	0.36287
312.15	2.50805
312.366	2.16042
312.581	2.66564
312.797	2.28748
313.013	2.82239
313.228	1.66471
313.444	2.28119
313.659	1.48394
313.875	2.5387
314.09	2.06694
314.306	3.47282
314.521	3.14843
314.737	2.94653
314.952	2.70489
315.168	2.18442
315.383	2.91402
315.599	1.92103
315.814	1.71084
316.029	3.12121
316.245	0.88504
316.46	0.89642
316.675	3.61126
316.891	4.25381
317.106	5.09043
317.321	3.06152
317.537	2.71824
317.752	3.09764
317.967	3.20674
318.183	1.64649
318.398	1.95645
318.613	3.40452
318.828	3.79396
319.043	2.94216
319.259	2.03635
319.474	2.60839
319.689	3.49069
319.904	0.54951
320.119	3.05619
320.334	2.53192
320.549	2.11426
320.765	3.46395
320.98	2.46128
321.195	3.25581
321.41	2.36308
321.625	3.01596
321.84	4.12973
322.055	4.34007
322.27	1.93801
322.485	1.06766
322.7	2.56673
322.915	3.55674
323.13	1.49828
323.345	3.95294
323.56	3.12116
323.775	3.12648
323.989	2.96596
324.204	2.38374
324.419	3.07593
324.634	0.93004
324.849	2.0984
325.064	4.68757
325.279	3.40534
325.493	2.99882
325.708	3.41006
325.923	1.51199
326.138	1.68384
326.352	3.99007
326.567	3.25192
326.782	1.84939
326.997	1.5626
327.211	2.88288
327.426	2.68548
327.641	1.97602
327.855	0.79064
328.07	3.10519
328.285	4.01829
328.499	1.99008
328.714	3.04634
328.928	3.09946
329.143	2.36963
329.358	3.22564
329.572	3.23596
329.787	3.72776
330.001	5.00564
330.216	0.83627
330.43	4.30311
330.645	4.09454
330.859	3.41435
331.074	1.50659
331.288	2.51857
331.503	3.88647
331.717	1.24745
331.931	2.44293
332.146	2.49395
332.36	4.1935
332.575	2.99832
332.789	2.63863
333.003	2.41986
333.218	2.96051
333.432	2.09611
333.646	3.18146
333.86	4.01531
334.075	4.17147
334.289	2.02866
334.503	1.52846
334.717	3.13346
334.932	2.97961
335.146	3.46477
335.36	2.05117
335.574	2.96986
335.788	2.84694
336.003	3.75419
336.217	3.35115
336.431	3.03907
336.645	1.77709
336.859	1.38199
337.073	2.204
337.287	2.66505
337.501	1.31757
337.715	2.76691
337.929	3.00238
338.143	1.30888
338.357	2.25809
338.571	1.48705
338.785	3.00982
338.999	1.98428
339.213	2.16251
339.427	1.07992
339.641	3.50545
339.855	2.23071
340.069	1.67435
340.283	3.40437
340.497	4.05193
340.711	2.73256
340.924	2.09136
341.138	1.39322
341.352	1.06994
341.566	2.57603
341.78	1.08627
341.993	1.91497
342.207	1.39356
342.421	2.66003
342.635	2.51602
342.848	1.82381
343.062	0.26789
343.276	1.87636
343.49	4.32944
343.703	1.7794
343.917	3.10119
344.131	3.24517
344.344	1.63963
344.558	1.81489
344.771	1.45311
344.985	3.58221
345.199	3.99859
345.412	2.42757
345.626	2.73854
345.839	0.78204
346.053	1.35399
346.266	1.38597
346.48	2.97534
346.693	2.39987
346.907	2.94163
347.12	1.60569
347.334	2.59565
347.547	2.64078
347.76	2.15862
347.974	3.23519
348.187	2.49726
348.401	2.32847
348.614	1.68982
348.827	2.10172
349.041	2.98879
349.254	0.90997
349.467	2.2457
349.681	1.38153
349.894	1.56135
350.107	3.55561
350.32	4.05386
350.534	0.79671
350.747	1.81566
350.96	1.3982
351.173	1.6188
351.386	1.99252
351.6	1.85129
351.813	1.73768
352.026	2.33325
352.239	1.26132
352.452	1.91209
352.665	2.99062
352.878	1.96999
353.092	4.22373
353.305	2.68658
353.518	2.35722
353.731	1.40546
353.944	3.37522
354.157	1.62606
354.37	1.63933
354.583	1.26383
354.796	1.07347
355.009	3.17454
355.222	2.17549
355.435	2.2644
355.647	3.19036
355.86	1.54876
356.073	2.12731
356.286	1.8406
356.499	3.03141
356.712	2.73396
356.925	2.68102
357.138	3.13713
357.35	1.36225
357.563	1.90014
357.776	2.43166
357.989	2.235
358.201	2.76276
358.414	2.46044
358.627	3.37371
358.84	2.14432
359.052	1.33177
359.265	1.53725
359.478	3.124
359.69	0.0224
359.903	2.84979
360.116	3.13423
360.328	0.94708
360.541	3.05208
360.753	1.69343
360.966	1.94135
361.179	2.09677
361.391	1.9336
361.604	1.52036
361.816	1.86583
362.029	1.91082
362.241	1.6648
362.454	2.05398
362.666	1.58037
362.879	2.52881
363.091	2.12714
363.304	1.92594
363.516	2.22884
363.728	1.48484
363.941	2.69982
364.153	2.35972
364.366	0.74276
364.578	1.46136
364.79	2.62726
365.003	2.50232
365.215	1.93563
365.427	2.92313
365.639	3.42222
365.852	2.73616
366.064	3.80666
366.276	2.0823
366.488	2.76956
366.701	2.24045
366.913	2.0731
367.125	2.38916
367.337	1.94578
367.549	2.13201
367.762	2.29775
367.974	2.48377
368.186	2.16061
368.398	3.44576
368.61	2.93145
368.822	2.91548
369.034	2.31323
369.246	3.38349
369.458	4.77345
369.67	1.8247
369.882	4.01216
370.094	0.8538
370.306	3.82406
370.518	2.34411
370.73	2.13188
370.942	2.18268
371.154	2.51361
371.366	2.54221
371.578	3.25222
371.79	2.41977
372.002	3.71702
372.214	4.35106
372.425	2.72017
372.637	4.05011
372.849	3.11884
373.061	1.04714
373.273	3.17249
373.484	3.21295
373.696	3.51543
373.908	1.16789
374.12	3.64759
374.331	3.60455
374.543	2.19974
374.755	2.13255
374.967	3.15277
375.178	3.88897
375.39	2.7875
375.602	3.14554
375.813	1.88258
376.025	2.1528
376.236	3.13126
376.448	3.31646
376.66	2.90137
376.871	2.94712
377.083	3.91105
377.294	4.56305
377.506	2.84421
377.717	4.19015
377.929	3.33222
378.14	3.00439
378.352	3.51277
378.563	3.93666
378.775	4.38196
378.986	2.58027
379.197	3.65149
379.409	2.79937
379.62	4.10643
379.832	3.67841
380.043	3.41061
380.254	3.73427
380.466	2.51918
380.677	5.71965
380.888	5.24295
381.1	5.69746
381.311	5.81114
381.522	3.9106
381.733	5.95708
381.945	3.80689
382.156	3.59674
382.367	3.65359
382.578	6.04594
382.789	6.19577
383.001	3.38267
383.212	5.25756
383.423	5.35291
383.634	4.60837
383.845	4.48144
384.056	3.60279
384.267	4.11979
384.478	4.02992
384.69	3.22826
384.901	4.59326
385.112	4.38039
385.323	5.73757
385.534	4.58194
385.745	4.8215
385.956	4.67146
386.167	3.55599
386.378	4.7176
386.588	3.85321
386.799	3.55862
387.01	3.2613
387.221	5.15241
387.432	4.56201
387.643	5.77374
387.854	4.34284
388.065	4.1969
388.275	4.46851
388.486	4.13718
388.697	4.72774
388.908	4.22562
389.119	5.48677
389.329	5.77902
389.54	4.86752
389.751	5.20868
389.962	5.83063
390.172	4.76152
390.383	4.75724
390.594	4.1963
390.804	4.23969
391.015	4.51327
391.226	5.07588
391.436	5.54338
391.647	5.42887
391.858	5.46403
392.068	3.8624
392.279	4.41326
392.489	5.35886
392.7	5.8907
392.91	4.6429
393.121	4.65921
393.331	5.66884
393.542	6.07036
393.752	5.96363
393.963	5.64536
394.173	5.63745
394.384	6.06708
394.594	5.52924
394.804	4.59212
395.015	5.49038
395.225	6.03023
395.436	4.86833
395.646	5.81875
395.856	5.18567
396.067	4.59667
396.277	6.1219
396.487	5.8311
396.697	5.92825
396.908	6.299
397.118	5.88583
397.328	5.96912
397.538	6.20799
397.749	5.41881
397.959	6.40534
398.169	6.12621
398.379	4.78029
398.589	6.00914
398.8	6.10372
399.01	6.07568
399.22	5.62878
399.43	7.42075
399.64	5.91028
399.85	6.33266
400.06	6.02502
400.27	5.4074
400.48	5.78199
400.69	6.84591
400.9	5.7358
401.11	5.24414
401.32	6.54258
401.53	5.85504
401.74	6.94526
401.95	6.43171
402.16	5.98189
402.37	6.52216
402.58	5.76158
402.79	6.43972
403	6.62065
403.209	5.42393
403.419	6.98145
403.629	5.53163
403.839	7.01489
404.049	7.01266
404.258	6.03971
404.468	6.02442
404.678	6.92967
404.888	7.25797
405.097	6.48322
405.307	6.32954
405.517	6.76563
405.727	7.00297
405.936	6.27279
406.146	6.81781
406.356	7.50688
406.565	6.41119
406.775	6.17125
406.984	6.27957
407.194	8.19194
407.404	6.61712
407.613	6.87234
407.823	7.22273
408.032	7.58588
408.242	7.23527
408.451	6.32785
408.661	6.54893
408.87	7.99198
409.08	6.13862
409.289	6.95615
409.499	6.93907
409.708	6.663
409.918	5.40286
410.127	7.04157
410.336	7.84567
410.546	7.57068
410.755	6.50681
410.964	6.58701
411.174	6.02592
411.383	7.17705
411.592	7.02582
411.802	6.25232
412.011	7.29041
412.22	6.80675
412.429	7.77462
412.639	7.98359
412.848	7.66532
413.057	8.23101
413.266	7.51005
413.475	6.90996
413.685	7.4781
413.894	7.87484
414.103	7.68181
414.312	7.44748
414.521	6.80795
414.73	7.49066
414.939	8.42426
415.148	7.33905
415.357	7.29141
415.566	7.05845
415.776	6.85457
415.985	7.04721
416.194	7.93449
416.403	8.65336
416.611	6.52591
416.82	7.18885
417.029	7.68975
417.238	7.08756
417.447	7.02647
417.656	7.46607
417.865	7.34592
418.074	7.75056
418.283	8.43527
418.492	9.49925
418.7	9.22322
418.909	10.83143
419.118	9.40436
419.327	10.08325
419.536	9.77369
419.744	10.03384
419.953	11.58708
420.162	11.56521
420.371	10.7239
420.579	11.44838
420.788	12.4213
420.997	12.61726
421.205	12.70225
421.414	12.57347
421.623	12.7791
421.831	11.94233
422.04	12.76878
422.249	11.73702
422.457	12.1938
422.666	11.27392
422.874	12.37068
423.083	12.34894
423.291	12.43445
423.5	12.43536
423.708	12.57956
423.917	13.48976
424.125	12.40585
424.334	12.49134
424.542	14.36762
424.751	13.55737
424.959	13.12569
425.167	13.49599
425.376	13.11091
425.584	11.70271
425.793	11.85946
426.001	10.52302
426.209	11.07943
426.418	9.65677
