Data from WindowProjectSample_Transmission__68__00068.txt Node

Date: Sat May 03 17:50:49 EDT 2025
User: jessi
Spectrometer: SR400872
Trigger mode: 0
Integration Time (sec): 5.000010E-1
Scans to average: 6
Electric dark correction enabled: true
Nonlinearity correction enabled: true
Boxcar width: 0
XAxis mode: Wavelengths
Number of Pixels in Spectrum: 3648
>>>>>Begin Spectral Data<<<<<
184.909	3355.57049
185.132	3899.20135
185.355	-4059.80262
185.578	4115.2681
185.801	-359.29995
186.024	-4889.38037
186.247	1564.26154
186.47	458.65053
186.693	-72.67897
186.916	2267.34869
187.139	3047.51075
187.362	-1848.43268
187.585	5348.7919
187.808	28672.4295
188.031	-33.35735
188.254	-4001.88744
188.476	782.9935
188.699	3468.30036
188.922	-227.54861
189.145	-6933.56919
189.368	-232.91882
189.591	-672.5515
189.813	-2977.63126
190.036	931.77313
190.259	-7418.50751
190.482	1284.27776
190.705	3778.30236
190.927	-1909.09295
191.15	-6782.8667
191.373	5495.8555
191.595	-1226.24254
191.818	2059.37465
192.041	-560.99795
192.263	1914.34294
192.486	-2149.77439
192.709	-22683.67644
192.931	1783.05894
193.154	-3719.36992
193.377	-2291.37177
193.599	4385.73008
193.822	1528.90052
194.044	5574.33462
194.267	848.12429
194.489	-135.99995
194.712	2424.73485
194.934	8555.86115
195.157	-22119.87166
195.379	2425.92193
195.602	1607.67854
195.824	1441.28188
196.047	43478.90215
196.269	3239.41372
196.492	-1911.77538
196.714	-1226.52557
196.936	1785.60796
197.159	-11604.01228
197.381	-402.14126
197.604	-5319.63271
197.826	-16585.78974
198.048	9276.37316
198.271	-8025.30226
198.493	4446.42408
198.715	3370.95391
198.938	-703.5365
199.16	-17482.45093
199.382	1175.21196
199.604	-1603.04345
199.827	-3558.63911
200.049	2339.07711
200.271	-6673.73882
200.493	-45299.07502
200.715	3292.11941
200.938	-3001.90474
201.16	-2553.64058
201.382	-1677.48448
201.604	-3282.62457
201.826	3182.32282
202.048	3207.13064
202.27	-1072.93333
202.492	-3295.54865
202.715	-1299.97852
202.937	-16753.11637
203.159	2558.58013
203.381	2226.96633
203.603	-2912.98813
203.825	-804.18339
204.047	53547.4292
204.269	-1266.48927
204.491	-1216.48983
204.713	65771.72886
204.935	-3000.40115
205.156	-960.29883
205.378	-4423.14312
205.6	-1159.91404
205.822	2167.71024
206.044	-411.6933
206.266	6825.39761
206.488	824.51765
206.71	3072.51757
206.932	1588.73896
207.153	-1585.00596
207.375	-2725.08476
207.597	3803.92424
207.819	27769.20467
208.041	4036.51549
208.262	-1455.82466
208.484	-1101.67532
208.706	-1539.12506
208.927	2850.6132
209.149	4858.16347
209.371	-4780.49316
209.593	316.28148
209.814	-23513.08922
210.036	2550.29977
210.258	-795.70735
210.479	4288.86081
210.701	-3260.56749
210.922	-11752.76996
211.144	-858.99287
211.366	5068.72096
211.587	-2168.0839
211.809	-4780.67555
212.03	-787.4544
212.252	-474.52316
212.473	3511.71466
212.695	-541.11542
212.916	-831.23018
213.138	583.23107
213.359	-1392.85405
213.581	12477.30645
213.802	-2014.21934
214.024	-2326.55743
214.245	-5807.15382
214.466	-336.13839
214.688	-2876.8645
214.909	-18302.89796
215.131	-4565.53767
215.352	-2160.50147
215.573	11607.18174
215.795	1662.47369
216.016	6194.75875
216.237	-521.49915
216.459	5827.94308
216.68	-3399.62178
216.901	-2680.18211
217.122	-1904.70472
217.344	-6678.61967
217.565	-2813.1471
217.786	2194.6314
218.007	1578.72591
218.228	-549.85491
218.45	-4226.23771
218.671	1332.5282
218.892	3859.84942
219.113	1533.2509
219.334	253.12952
219.555	-6832.60246
219.776	11507.93303
219.997	3885.40703
220.219	1756.73428
220.44	1098.51166
220.661	1007.47266
220.882	-2612.68831
221.103	-954.53001
221.324	2400.78249
221.545	2942.12543
221.766	-3431.84565
221.987	-600.762
222.208	-9779.52717
222.429	169423.12553
222.65	-211.95296
222.87	-9225.19308
223.091	2477.1997
223.312	-1337.85102
223.533	2341.34473
223.754	1969.86216
223.975	2717.50924
224.196	-5643.08773
224.417	-2589.55946
224.637	7533.02202
224.858	1716.32713
225.079	1250.72153
225.3	1086.39868
225.521	4941.52602
225.741	879.55974
225.962	1048.0024
226.183	-488.64533
226.404	1456.28611
226.624	1123.66407
226.845	1457.76276
227.066	841.59747
227.286	541.93184
227.507	204.51873
227.728	200.84187
227.948	281.78217
228.169	95.29442
228.389	95.94221
228.61	44.84592
228.831	61.69826
229.051	7.20782
229.272	35.89379
229.492	51.61863
229.713	16.0448
229.933	38.12933
230.154	32.34534
230.374	52.92253
230.595	39.73767
230.815	27.10878
231.036	36.79359
231.256	-5.66947
231.477	74.24193
231.697	43.18708
231.917	42.81413
232.138	66.25352
232.358	137.84268
232.579	120.09918
232.799	19.46912
233.019	106.55461
233.24	140.20458
233.46	41.75836
233.68	78.63635
233.901	48.0439
234.121	34.6504
234.341	9.30204
234.561	-4.88839
234.782	23.83902
235.002	78.62412
235.222	-2.9973
235.442	65.65463
235.662	33.05444
235.883	73.14285
236.103	64.81225
236.323	41.39725
236.543	28.75351
236.763	47.59376
236.983	48.23827
237.203	49.64106
237.423	69.62016
237.643	97.90573
237.864	90.28114
238.084	25.17652
238.304	35.30833
238.524	56.54288
238.744	42.93059
238.964	73.32833
239.184	68.71667
239.404	70.26762
239.624	41.12541
239.843	68.12707
240.063	36.65118
240.283	22.83784
240.503	27.10918
240.723	27.14577
240.943	13.26775
241.163	20.34792
241.383	15.41754
241.603	5.82884
241.822	7.96124
242.042	6.71148
242.262	8.07644
242.482	9.66145
242.702	11.4892
242.921	3.70656
243.141	8.07702
243.361	7.4073
243.581	9.7793
243.8	8.32467
244.02	5.07924
244.24	10.70749
244.459	10.57896
244.679	20.03908
244.899	13.60372
245.118	14.02667
245.338	13.09591
245.558	15.7627
245.777	9.32617
245.997	10.44242
246.216	10.72613
246.436	6.00846
246.655	4.23755
246.875	3.07557
247.094	6.59238
247.314	2.21829
247.533	3.66043
247.753	4.61267
247.972	3.50084
248.192	1.19914
248.411	2.19961
248.631	4.11949
248.85	5.13858
249.07	3.76757
249.289	6.92079
249.508	4.94414
249.728	8.31954
249.947	8.59533
250.166	8.75057
250.386	4.99001
250.605	7.20164
250.824	11.78765
251.044	8.7642
251.263	27.80074
251.482	14.54244
251.701	12.9961
251.921	0.22893
252.14	3.87694
252.359	4.87872
252.578	10.61357
252.798	3.38314
253.017	9.12059
253.236	5.90487
253.455	5.6741
253.674	12.75604
253.893	5.63016
254.112	9.06756
254.331	12.43637
254.551	10.65341
254.77	5.30154
254.989	15.47787
255.208	13.42452
255.427	16.21229
255.646	14.57462
255.865	23.80586
256.084	9.31033
256.303	10.60162
256.522	15.21891
256.741	3.63295
256.96	3.81897
257.179	8.95271
257.397	11.85644
257.616	5.48232
257.835	6.71115
258.054	16.18476
258.273	10.28859
258.492	11.57007
258.711	7.03519
258.93	3.08556
259.148	4.31636
259.367	4.48068
259.586	5.61411
259.805	2.52861
260.023	5.17431
260.242	4.03432
260.461	2.85927
260.68	1.63142
260.898	4.89996
261.117	1.50806
261.336	1.25135
261.554	3.93224
261.773	4.00964
261.992	0.89577
262.21	3.76363
262.429	4.69491
262.648	7.59317
262.866	9.09643
263.085	6.16014
263.303	5.46722
263.522	9.37621
263.74	10.28627
263.959	16.17354
264.178	8.38279
264.396	7.61829
264.615	4.92364
264.833	12.21332
265.051	11.00911
265.27	11.22616
265.488	11.83273
265.707	8.08545
265.925	11.63229
266.144	5.37508
266.362	6.81541
266.58	6.30713
266.799	5.64867
267.017	6.7975
267.235	5.96913
267.454	3.75551
267.672	2.22894
267.89	4.4095
268.109	5.01703
268.327	4.58668
268.545	1.10614
268.763	4.4418
268.982	2.09648
269.2	5.68165
269.418	3.37194
269.636	2.32031
269.854	4.55653
270.073	3.7979
270.291	1.68529
270.509	1.81281
270.727	4.73865
270.945	8.06285
271.163	8.06447
271.381	2.08792
271.599	3.12135
271.817	5.53788
272.036	1.88855
272.254	3.47959
272.472	2.77579
272.69	2.75479
272.908	2.70334
273.126	4.40046
273.344	5.8432
273.562	2.17397
273.779	2.83874
273.997	4.20318
274.215	4.87092
274.433	3.24839
274.651	5.04851
274.869	4.99935
275.087	3.13461
275.305	4.82796
275.523	2.16741
275.74	3.53751
275.958	5.83311
276.176	8.57225
276.394	2.91393
276.612	3.36588
276.829	3.69983
277.047	3.03042
277.265	3.4173
277.483	4.50004
277.7	4.88776
277.918	3.83157
278.136	6.99243
278.353	3.60167
278.571	1.84013
278.789	5.55358
279.006	1.12369
279.224	3.05898
279.442	5.44802
279.659	4.07109
279.877	2.80166
280.094	6.11243
280.312	0.97203
280.529	3.90553
280.747	0.93876
280.964	2.87007
281.182	6.73732
281.399	2.91911
281.617	4.29216
281.834	2.88403
282.052	2.45265
282.269	3.31017
282.487	2.85586
282.704	2.28693
282.921	2.69643
283.139	3.68822
283.356	4.53365
283.574	3.83914
283.791	2.16273
284.008	5.88148
284.226	2.91154
284.443	3.58295
284.66	4.60565
284.877	3.67522
285.095	2.60229
285.312	1.85582
285.529	1.10929
285.746	0.92193
285.964	2.20776
286.181	1.53068
286.398	2.1755
286.615	2.88468
286.832	2.83803
287.05	0.8385
287.267	1.92212
287.484	2.19305
287.701	2.84566
287.918	2.91289
288.135	3.05767
288.352	1.6391
288.569	1.45814
288.786	2.55032
289.003	1.99029
289.22	3.1551
289.437	2.02327
289.654	3.19725
289.871	3.52797
290.088	3.32491
290.305	2.47314
290.522	1.93338
290.739	2.44678
290.956	3.42972
291.173	4.04991
291.39	3.6748
291.607	2.61206
291.824	1.94198
292.04	1.17303
292.257	3.15208
292.474	3.50806
292.691	2.06901
292.908	1.28206
293.125	2.15805
293.341	1.35695
293.558	5.6783
293.775	2.53835
293.992	2.21092
294.208	1.00045
294.425	1.0747
294.642	2.03556
294.858	2.52336
295.075	0.90571
295.292	2.06845
295.508	2.69489
295.725	4.14316
295.942	2.03992
296.158	1.59721
296.375	2.36807
296.591	1.74814
296.808	2.0369
297.024	2.33854
297.241	2.61585
297.458	2.74642
297.674	0.51443
297.891	2.41964
298.107	2.09899
298.323	1.45874
298.54	3.32938
298.756	1.87834
298.973	0.96053
299.189	3.56067
299.406	1.88583
299.622	3.57869
299.838	3.65982
300.055	3.42345
300.271	1.40725
300.487	1.68062
300.704	2.07967
300.92	1.54825
301.136	5.15656
301.353	3.54014
301.569	2.80211
301.785	3.12721
302.001	3.65149
302.218	3.30745
302.434	3.48194
302.65	1.79762
302.866	2.49614
303.083	5.45291
303.299	5.15697
303.515	3.08859
303.731	3.81341
303.947	2.31796
304.163	2.86732
304.379	3.56674
304.595	3.77773
304.812	2.66484
305.028	2.60226
305.244	2.90181
305.46	3.99535
305.676	4.20868
305.892	4.98358
306.108	4.08016
306.324	3.16941
306.54	5.53343
306.756	4.0186
306.972	3.74069
307.187	3.69467
307.403	4.92421
307.619	3.0464
307.835	4.52117
308.051	5.17216
308.267	2.54449
308.483	5.09655
308.699	4.28104
308.914	3.97504
309.13	3.89705
309.346	2.77404
309.562	3.08041
309.778	2.69795
309.993	4.49685
310.209	4.40676
310.425	2.93945
310.641	4.2428
310.856	3.5419
311.072	3.21869
311.288	4.00677
311.503	4.95537
311.719	2.67774
311.935	2.89918
312.15	5.03993
312.366	4.74741
312.581	4.9185
312.797	4.5374
313.013	5.0406
313.228	3.82405
313.444	4.08387
313.659	3.40297
313.875	4.66827
314.09	4.05991
314.306	5.4889
314.521	4.97527
314.737	4.88126
314.952	4.55885
315.168	4.566
315.383	4.92962
315.599	3.64148
315.814	3.97039
316.029	4.79881
316.245	3.28781
316.46	2.52798
316.675	5.32348
316.891	6.26066
317.106	7.02459
317.321	4.55441
317.537	4.85675
317.752	5.18536
317.967	5.35775
318.183	3.50995
318.398	3.82892
318.613	5.33674
318.828	5.89138
319.043	4.81746
319.259	3.98154
319.474	4.79506
319.689	5.28358
319.904	2.43636
320.119	5.52547
320.334	4.42339
320.549	4.2229
320.765	5.66712
320.98	4.68124
321.195	4.9352
321.41	4.36571
321.625	5.00882
321.84	5.96165
322.055	5.94697
322.27	3.36932
322.485	3.11949
322.7	4.75799
322.915	5.37823
323.13	4.05373
323.345	6.32423
323.56	5.69184
323.775	5.34923
323.989	5.10806
324.204	4.66946
324.419	5.62312
324.634	3.31933
324.849	4.73134
325.064	7.37555
325.279	5.83562
325.493	5.19907
325.708	5.53263
325.923	3.88317
326.138	4.40836
326.352	6.36072
326.567	5.37549
326.782	4.24717
326.997	4.27072
327.211	5.454
327.426	4.94273
327.641	4.71649
327.855	3.51907
328.07	5.87239
328.285	6.64559
328.499	4.40894
328.714	5.14701
328.928	5.07547
329.143	4.92514
329.358	5.92605
329.572	5.71462
329.787	6.44581
330.001	7.47319
330.216	3.15526
330.43	7.25006
330.645	6.1521
330.859	5.58629
331.074	3.73415
331.288	4.77888
331.503	6.88884
331.717	3.50855
331.931	4.98498
332.146	5.27967
332.36	6.84678
332.575	5.46432
332.789	4.99917
333.003	5.22994
333.218	5.80263
333.432	4.98889
333.646	6.25284
333.86	6.93848
334.075	6.92961
334.289	4.61366
334.503	3.65686
334.717	6.20669
334.932	5.25449
335.146	5.85803
335.36	4.0088
335.574	5.66127
335.788	5.05957
336.003	5.71279
336.217	5.98129
336.431	5.06267
336.645	4.42883
336.859	4.23649
337.073	5.22549
337.287	5.51181
337.501	4.02418
337.715	6.01195
337.929	5.67028
338.143	4.64799
338.357	5.2066
338.571	5.04605
338.785	6.34709
338.999	4.96301
339.213	5.24191
339.427	4.10226
339.641	6.23384
339.855	4.79452
340.069	4.31899
340.283	6.1138
340.497	6.68959
340.711	5.97137
340.924	5.3183
341.138	4.65574
341.352	3.83564
341.566	5.50087
341.78	4.05861
341.993	4.68747
342.207	4.70701
342.421	5.74042
342.635	5.44406
342.848	4.99964
343.062	2.96705
343.276	4.87924
343.49	6.99258
343.703	4.89785
343.917	6.18212
344.131	6.58485
344.344	4.67255
344.558	4.99832
344.771	4.26563
344.985	6.51323
345.199	7.38546
345.412	5.79053
345.626	6.10711
345.839	3.81436
346.053	4.47533
346.266	4.69478
346.48	5.99586
346.693	5.99346
346.907	5.66587
347.12	4.50459
347.334	5.44242
347.547	5.81121
347.76	5.48178
347.974	6.22597
348.187	5.63518
348.401	5.19812
348.614	4.51745
348.827	5.19379
349.041	5.86091
349.254	3.80988
349.467	4.986
349.681	4.47358
349.894	4.43592
350.107	6.58944
350.32	7.31929
350.534	4.07169
350.747	5.35588
350.96	4.658
351.173	4.64474
351.386	5.13055
351.6	4.84451
351.813	5.03126
352.026	5.23637
352.239	4.4357
352.452	4.88573
352.665	6.50308
352.878	4.87315
353.092	7.47233
353.305	6.14205
353.518	5.69395
353.731	4.54177
353.944	6.62555
354.157	5.17503
354.37	5.27143
354.583	4.31739
354.796	4.87603
355.009	6.40642
355.222	5.79002
355.435	5.69184
355.647	6.88983
355.86	5.01625
356.073	5.90541
356.286	5.35153
356.499	6.64174
356.712	6.61435
356.925	6.27219
357.138	6.86818
357.35	5.06216
357.563	5.53571
357.776	6.12256
357.989	6.24062
358.201	6.73725
358.414	6.29589
358.627	7.08279
358.84	5.85203
359.052	5.28013
359.265	5.23426
359.478	6.89916
359.69	3.86702
359.903	7.02453
360.116	7.11831
360.328	4.91593
360.541	6.8875
360.753	6.01755
360.966	6.16424
361.179	6.42425
361.391	6.15536
361.604	5.84024
361.816	6.20508
362.029	6.17912
362.241	5.79354
362.454	6.39182
362.666	5.8694
362.879	6.98626
363.091	6.10848
363.304	5.8732
363.516	6.02959
363.728	5.43113
363.941	6.52945
364.153	6.46865
364.366	4.80892
364.578	5.61945
364.79	6.60735
365.003	6.68889
365.215	5.83459
365.427	6.99237
365.639	7.09366
365.852	6.43732
366.064	7.4813
366.276	6.17252
366.488	6.58345
366.701	6.21963
366.913	6.04699
367.125	6.29114
367.337	5.79985
367.549	6.0058
367.762	6.07453
367.974	6.20959
368.186	6.19308
368.398	7.21875
368.61	6.66402
368.822	6.80471
369.034	6.07164
369.246	7.28957
369.458	8.51163
369.67	5.64115
369.882	7.62305
370.094	4.65812
370.306	7.30206
370.518	6.34365
370.73	6.04903
370.942	6.18745
371.154	6.42863
371.366	6.48269
371.578	7.18252
371.79	6.73911
372.002	7.60897
372.214	8.58256
372.425	6.52637
372.637	8.09363
372.849	6.97752
373.061	4.89887
373.273	7.11626
373.484	7.16717
373.696	7.42476
373.908	4.9344
374.12	7.38086
374.331	7.59461
374.543	5.98555
374.755	6.10246
374.967	6.65238
375.178	7.8179
375.39	6.65487
375.602	6.98533
375.813	5.7059
376.025	6.37212
376.236	7.06566
376.448	7.32213
376.66	7.13808
376.871	7.27177
377.083	7.71856
377.294	8.78532
377.506	6.94798
377.717	8.27866
377.929	7.48266
378.14	7.1254
378.352	7.59162
378.563	7.95694
378.775	8.41589
378.986	6.54071
379.197	7.45224
379.409	6.70752
379.62	7.80595
379.832	7.51551
380.043	7.0811
380.254	7.75575
380.466	6.37161
380.677	9.54839
380.888	8.91631
381.1	9.59806
381.311	9.18684
381.522	8.0359
381.733	9.51507
381.945	7.60614
382.156	7.17024
382.367	7.3354
382.578	10.09407
382.789	9.98868
383.001	7.08091
383.212	9.30746
383.423	9.16274
383.634	8.60709
383.845	8.48151
384.056	7.59571
384.267	7.98999
384.478	7.94075
384.69	7.0682
384.901	8.31792
385.112	8.19643
385.323	9.5007
385.534	8.54399
385.745	8.66543
385.956	8.07494
386.167	7.26657
386.378	8.48485
386.588	7.79952
386.799	7.49383
387.01	7.14537
387.221	8.76348
387.432	8.27704
387.643	9.45721
387.854	8.26692
388.065	8.0111
388.275	8.18255
388.486	7.6573
388.697	8.49539
388.908	7.73682
389.119	9.10522
389.329	9.53519
389.54	8.30684
389.751	8.73782
389.962	9.36732
390.172	8.4524
390.383	8.54566
390.594	8.14809
390.804	7.94297
391.015	8.2312
391.226	8.66357
391.436	9.07342
391.647	8.97296
391.858	9.04444
392.068	7.53406
392.279	7.99261
392.489	9.19012
392.7	9.13354
392.91	8.5202
393.121	8.2646
393.331	9.01145
393.542	9.69317
393.752	9.52634
393.963	9.28117
394.173	9.4085
394.384	9.49752
394.594	9.19264
394.804	8.17825
395.015	9.04299
395.225	9.38904
395.436	8.27931
395.646	9.20494
395.856	8.62123
396.067	7.91862
396.277	9.55033
396.487	9.13397
396.697	9.43369
396.908	9.61448
397.118	9.38229
397.328	9.07006
397.538	9.63729
397.749	8.79565
397.959	9.81795
398.169	9.22821
398.379	8.13738
398.589	9.29014
398.8	9.52712
399.01	9.41768
399.22	9.04302
399.43	10.66948
399.64	9.21549
399.85	9.63971
400.06	9.33802
400.27	8.77789
400.48	9.01732
400.69	9.8531
400.9	8.95443
401.11	8.22399
401.32	9.75662
401.53	8.80902
401.74	10.25476
401.95	9.42314
402.16	9.20071
402.37	9.50196
402.58	9.11404
402.79	9.83604
403	10.02976
403.209	8.92252
403.419	10.19063
403.629	8.93076
403.839	10.25875
404.049	10.20514
404.258	9.1284
404.468	9.12494
404.678	10.20079
404.888	10.54268
405.097	9.6252
405.307	9.45316
405.517	10.0951
405.727	10.1977
405.936	9.41961
406.146	9.89068
406.356	10.58002
406.565	9.4161
406.775	9.4064
406.984	9.27544
407.194	11.12951
407.404	9.70965
407.613	10.02678
407.823	10.19283
408.032	10.58863
408.242	10.32429
408.451	9.35448
408.661	9.5815
408.87	11.14147
409.08	9.27163
409.289	10.27851
409.499	10.16014
409.708	10.0248
409.918	8.54707
410.127	10.0845
410.336	10.99031
410.546	10.64768
410.755	9.74355
410.964	9.73429
411.174	9.23732
411.383	10.41854
411.592	10.07065
411.802	9.22549
412.011	10.46865
412.22	9.67907
412.429	10.7169
412.639	10.90275
412.848	10.7094
413.057	11.09764
413.266	10.58601
413.475	10.13615
413.685	10.43912
413.894	10.7436
414.103	10.72633
414.312	10.60636
414.521	9.93738
414.73	10.43394
414.939	11.50426
415.148	10.39285
415.357	10.5613
415.566	10.43946
415.776	10.25921
415.985	10.18669
416.194	11.00268
416.403	11.74173
416.611	9.76334
416.82	10.42124
417.029	10.88659
417.238	10.36186
417.447	10.26093
417.656	10.75888
417.865	10.55365
418.074	11.25161
418.283	12.08142
418.492	13.43714
418.7	13.07877
418.909	14.90317
419.118	13.39899
419.327	14.15713
419.536	14.10894
419.744	14.32315
419.953	16.11566
420.162	16.36395
420.371	15.68437
420.579	16.47191
420.788	17.3254
420.997	17.6628
421.205	17.79597
421.414	17.54434
421.623	17.81791
421.831	17.06747
422.04	17.75686
422.249	16.5005
422.457	16.7312
422.666	15.80088
422.874	16.7545
423.083	17.17293
423.291	17.1385
423.5	17.39177
423.708	17.64593
423.917	18.28491
424.125	17.6528
424.334	17.47865
424.542	19.46875
424.751	18.70834
424.959	18.0727
425.167	18.035
425.376	17.88504
425.584	16.12939
425.793	15.8169
