Data from WindowProjectSample_Transmission__73__00073.txt Node

Date: Sat May 03 17:56:32 EDT 2025
User: jessi
Spectrometer: SR400872
Trigger mode: 0
Integration Time (sec): 5.000010E-1
Scans to average: 6
Electric dark correction enabled: true
Nonlinearity correction enabled: true
Boxcar width: 0
XAxis mode: Wavelengths
Number of Pixels in Spectrum: 3648
>>>>>Begin Spectral Data<<<<<
184.909	3487.54608
185.132	3946.46941
185.355	-4163.9318
185.578	4147.63573
185.801	-460.57746
186.024	-5013.93427
186.247	1591.69085
186.47	494.21293
186.693	-37.28284
186.916	492.83729
187.139	3089.09687
187.362	-1826.79856
187.585	5275.88769
187.808	25085.94123
188.031	-84.83408
188.254	-3742.43468
188.476	770.06954
188.699	3428.55352
188.922	-182.54404
189.145	-6889.16018
189.368	-416.3967
189.591	-617.75918
189.813	-3011.56863
190.036	879.26808
190.259	-8215.39536
190.482	1354.54682
190.705	3725.85777
190.927	-1764.71675
191.15	-6646.01623
191.373	5540.35245
191.595	-1162.42293
191.818	1956.14136
192.041	-570.22969
192.263	1879.60276
192.486	-1992.82562
192.709	-23392.3274
192.931	1887.40661
193.154	-3700.88695
193.377	-2325.73619
193.599	4154.65712
193.822	1629.23431
194.044	5424.59521
194.267	901.54268
194.489	-711.2391
194.712	2483.86746
194.934	8369.75962
195.157	-27263.10579
195.379	2215.12227
195.602	1716.93728
195.824	1498.23497
196.047	45652.68484
196.269	3065.47363
196.492	-1808.16421
196.714	-1216.67028
196.936	1876.885
197.159	-11967.94398
197.381	-459.26432
197.604	-5411.59703
197.826	-16330.35106
198.048	10137.91991
198.271	-8580.80587
198.493	4271.52895
198.715	3540.88182
198.938	-830.61646
199.16	-17233.75076
199.382	1194.94683
199.604	-1612.32416
199.827	-3227.95159
200.049	2288.06604
200.271	-7103.67901
200.493	-45274.11382
200.715	3589.86873
200.938	-2959.17447
201.16	-2550.405
201.382	-1630.24069
201.604	-3160.26099
201.826	3231.029
202.048	3372.87446
202.27	-1065.05234
202.492	-3494.20045
202.715	-1269.10911
202.937	-17051.49652
203.159	2564.49078
203.381	2100.49442
203.603	-2918.51747
203.825	-857.06059
204.047	56022.31961
204.269	-1251.67402
204.491	-1123.0089
204.713	62833.49538
204.935	-3118.16151
205.156	-870.91349
205.378	-4289.62857
205.6	-1225.20523
205.822	2324.24876
206.044	-264.17916
206.266	6166.38954
206.488	780.58124
206.71	3227.28085
206.932	1689.48164
207.153	-1576.54772
207.375	-2758.81762
207.597	3829.78497
207.819	27225.11134
208.041	4080.05728
208.262	-1498.02867
208.484	-1115.59091
208.706	-1400.06547
208.927	2763.93593
209.149	4644.56646
209.371	-5320.93144
209.593	383.61304
209.814	-28376.84232
210.036	2143.00598
210.258	-838.73843
210.479	3955.18018
210.701	-3559.04577
210.922	-10685.44785
211.144	-863.08928
211.366	5081.19809
211.587	-2202.46937
211.809	-4774.1704
212.03	-839.95851
212.252	-540.16942
212.473	3346.96607
212.695	-632.47703
212.916	-788.43395
213.138	514.84412
213.359	-1434.28205
213.581	11554.30912
213.802	-1697.59379
214.024	-2311.53687
214.245	-5620.47008
214.466	-336.11047
214.688	-2654.80629
214.909	-17504.36389
215.131	-4737.3891
215.352	-2039.6036
215.573	11420.34944
215.795	1599.22344
216.016	6570.25138
216.237	-516.78687
216.459	6522.32007
216.68	-3344.75391
216.901	-2707.14596
217.122	-2223.01887
217.344	-6928.85774
217.565	-2762.44137
217.786	2238.16677
218.007	1413.9303
218.228	-626.31464
218.45	-4311.11509
218.671	1496.8821
218.892	3771.58812
219.113	1528.00879
219.334	256.41813
219.555	-7554.68642
219.776	12113.35276
219.997	3918.68896
220.219	1585.22406
220.44	1100.01483
220.661	924.26515
220.882	-2654.53004
221.103	-1128.48708
221.324	2539.48495
221.545	2907.59984
221.766	-3294.58323
221.987	-529.43606
222.208	-9385.02663
222.429	167841.78039
222.65	-239.47317
222.87	-8929.43157
223.091	2612.05366
223.312	-988.75667
223.533	2282.42587
223.754	2016.61533
223.975	2777.51112
224.196	-5382.62985
224.417	-2547.52701
224.637	8110.44011
224.858	1796.52977
225.079	1181.22024
225.3	1117.11451
225.521	4861.74244
225.741	819.28444
225.962	1203.58136
226.183	-542.29037
226.404	1402.15179
226.624	1088.52255
226.845	1607.47562
227.066	849.95091
227.286	554.13402
227.507	196.67007
227.728	163.81305
227.948	276.43493
228.169	86.75904
228.389	90.62317
228.61	44.57192
228.831	66.71849
229.051	4.89701
229.272	37.3899
229.492	48.84652
229.713	11.47385
229.933	36.33398
230.154	33.37865
230.374	52.64061
230.595	38.94937
230.815	27.36188
231.036	36.17518
231.256	-3.44923
231.477	75.31293
231.697	44.90631
231.917	45.99631
232.138	64.63111
232.358	134.06839
232.579	125.11601
232.799	12.87535
233.019	101.30043
233.24	142.93515
233.46	41.80223
233.68	73.70606
233.901	51.14153
234.121	30.42157
234.341	11.76082
234.561	-3.84619
234.782	23.16689
235.002	80.92722
235.222	-3.01251
235.442	65.13701
235.662	33.21788
235.883	74.22559
236.103	66.02837
236.323	42.77335
236.543	29.74275
236.763	44.48553
236.983	49.7763
237.203	54.09485
237.423	68.75728
237.643	102.07633
237.864	89.13479
238.084	22.66183
238.304	38.4186
238.524	57.0595
238.744	44.60152
238.964	74.55011
239.184	68.08055
239.404	71.76165
239.624	38.41271
239.843	63.68319
240.063	36.53353
240.283	24.9034
240.503	26.00804
240.723	27.12491
240.943	14.16418
241.163	20.32257
241.383	14.85789
241.603	7.6354
241.822	9.02749
242.042	6.34613
242.262	8.08121
242.482	8.87498
242.702	11.13089
242.921	3.45197
243.141	8.70373
243.361	6.78166
243.581	10.11987
243.8	8.8486
244.02	6.23783
244.24	9.75674
244.459	9.62647
244.679	21.53793
244.899	12.72192
245.118	14.98522
245.338	12.86989
245.558	16.19777
245.777	9.16042
245.997	10.90402
246.216	10.97839
246.436	6.15453
246.655	4.55285
246.875	3.46044
247.094	6.54752
247.314	2.44641
247.533	3.88206
247.753	4.53394
247.972	3.70597
248.192	1.6546
248.411	2.06234
248.631	4.43461
248.85	5.11413
249.07	3.8023
249.289	6.78645
249.508	5.26935
249.728	7.96454
249.947	8.37733
250.166	9.38252
250.386	5.31519
250.605	7.98682
250.824	11.44527
251.044	8.77803
251.263	27.2565
251.482	14.95156
251.701	12.74536
251.921	0.66502
252.14	4.09283
252.359	4.5655
252.578	10.59268
252.798	3.98597
253.017	10.3381
253.236	6.05811
253.455	6.87797
253.674	12.97321
253.893	6.34452
254.112	8.22599
254.331	13.06993
254.551	10.32422
254.77	4.59057
254.989	14.89589
255.208	13.4657
255.427	17.11231
255.646	13.43966
255.865	24.10227
256.084	9.20561
256.303	12.17193
256.522	14.97077
256.741	2.79434
256.96	5.14116
257.179	8.51776
257.397	11.85945
257.616	6.53077
257.835	6.26137
258.054	16.36146
258.273	9.94181
258.492	11.75708
258.711	7.11609
258.93	3.04677
259.148	4.08374
259.367	4.38867
259.586	5.8489
259.805	2.76971
260.023	5.18893
260.242	4.16673
260.461	3.04057
260.68	1.61084
260.898	4.69383
261.117	1.45953
261.336	1.07013
261.554	4.25471
261.773	3.84661
261.992	0.80152
262.21	4.13243
262.429	4.69949
262.648	8.36001
262.866	8.97606
263.085	5.86943
263.303	5.33427
263.522	9.54871
263.74	9.73313
263.959	16.0181
264.178	8.25283
264.396	6.83989
264.615	5.13217
264.833	12.65476
265.051	11.69191
265.27	10.94102
265.488	11.97223
265.707	7.45048
265.925	11.77951
266.144	5.84549
266.362	6.3683
266.58	6.83873
266.799	5.30475
267.017	6.71071
267.235	5.94659
267.454	3.80646
267.672	2.48042
267.89	4.67787
268.109	5.09097
268.327	4.99929
268.545	1.46929
268.763	4.66097
268.982	2.12217
269.2	5.43352
269.418	3.48086
269.636	2.28205
269.854	4.96839
270.073	3.7651
270.291	2.23596
270.509	2.07063
270.727	4.88767
270.945	7.93505
271.163	7.75548
271.381	1.66853
271.599	3.0934
271.817	5.91228
272.036	2.30505
272.254	3.60572
272.472	3.0517
272.69	2.72813
272.908	2.87666
273.126	4.57307
273.344	5.73342
273.562	1.96831
273.779	2.78065
273.997	4.17363
274.215	4.99838
274.433	3.44185
274.651	5.19476
274.869	5.28722
275.087	2.86376
275.305	4.88968
275.523	2.38787
275.74	3.75444
275.958	5.87559
276.176	8.39749
276.394	2.71301
276.612	3.38738
276.829	3.68563
277.047	2.97512
277.265	3.33066
277.483	4.09219
277.7	4.31897
277.918	4.04474
278.136	6.80971
278.353	3.31467
278.571	1.7502
278.789	5.8981
279.006	1.31111
279.224	3.10373
279.442	5.58556
279.659	3.97104
279.877	2.59555
280.094	5.66659
280.312	1.40511
280.529	3.92441
280.747	1.24011
280.964	2.85221
281.182	6.65381
281.399	3.45698
281.617	4.16098
281.834	3.02873
282.052	2.29175
282.269	3.50922
282.487	2.74438
282.704	2.14679
282.921	2.6166
283.139	3.55728
283.356	4.81892
283.574	3.71007
283.791	2.01955
284.008	5.75871
284.226	3.24702
284.443	3.57655
284.66	4.74959
284.877	3.59059
285.095	2.5577
285.312	1.66545
285.529	1.12359
285.746	0.87713
285.964	2.26457
286.181	1.32604
286.398	2.38452
286.615	2.96458
286.832	3.0915
287.05	0.8305
287.267	2.01144
287.484	2.1552
287.701	3.05582
287.918	3.10654
288.135	3.07043
288.352	1.43291
288.569	1.68383
288.786	2.73768
289.003	2.12715
289.22	3.06074
289.437	1.86855
289.654	3.20537
289.871	3.43314
290.088	3.28831
290.305	2.39583
290.522	1.84712
290.739	2.6261
290.956	3.47983
291.173	4.19115
291.39	3.92485
291.607	2.69882
291.824	1.93736
292.04	1.33333
292.257	3.15697
292.474	3.70673
292.691	2.48522
292.908	1.29807
293.125	1.93127
293.341	1.10873
293.558	5.59913
293.775	2.14304
293.992	2.35948
294.208	1.08845
294.425	1.31716
294.642	2.03418
294.858	2.54222
295.075	0.81936
295.292	2.28105
295.508	2.6175
295.725	4.1763
295.942	2.17249
296.158	1.52542
296.375	2.33243
296.591	1.90422
296.808	2.02464
297.024	2.31034
297.241	2.63337
297.458	2.78595
297.674	0.47393
297.891	2.26615
298.107	2.11723
298.323	1.36659
298.54	3.31621
298.756	1.75992
298.973	1.03812
299.189	3.47339
299.406	2.00197
299.622	3.46202
299.838	3.76364
300.055	3.33576
300.271	1.3899
300.487	1.49695
300.704	2.09631
300.92	1.79778
301.136	5.12966
301.353	3.76325
301.569	2.86289
301.785	3.15864
302.001	3.79796
302.218	3.38954
302.434	3.72612
302.65	1.99885
302.866	2.62932
303.083	5.59373
303.299	5.55653
303.515	3.30119
303.731	3.88844
303.947	2.23586
304.163	2.93548
304.379	3.60532
304.595	3.80767
304.812	2.65836
305.028	2.83311
305.244	3.14562
305.46	4.12782
305.676	4.61859
305.892	5.24367
306.108	4.20754
306.324	3.2719
306.54	5.93204
306.756	4.18974
306.972	3.94162
307.187	3.81086
307.403	4.96576
307.619	3.09809
307.835	4.76482
308.051	5.09893
308.267	2.5697
308.483	5.39609
308.699	4.43569
308.914	4.04554
309.13	3.80574
309.346	2.98331
309.562	3.15215
309.778	2.80804
309.993	4.48118
310.209	4.49
310.425	2.90566
310.641	4.18973
310.856	3.45735
311.072	3.24536
311.288	4.05942
311.503	4.90781
311.719	2.66715
311.935	2.7926
312.15	5.0139
312.366	4.87323
312.581	5.00627
312.797	4.54865
313.013	5.22006
313.228	3.76266
313.444	3.99338
313.659	3.49342
313.875	4.70718
314.09	4.16247
314.306	5.59233
314.521	5.0708
314.737	4.89217
314.952	4.53297
315.168	4.52676
315.383	4.93142
315.599	3.62883
315.814	3.98659
316.029	4.90971
316.245	3.48975
316.46	2.42536
316.675	5.39997
316.891	6.08969
317.106	7.15554
317.321	4.42337
317.537	4.85333
317.752	5.22953
317.967	5.02696
318.183	3.58879
318.398	3.95078
318.613	5.34495
318.828	5.60841
319.043	4.90146
319.259	4.0053
319.474	4.35016
319.689	5.80633
319.904	2.57292
320.119	5.52261
320.334	4.51733
320.549	4.27602
320.765	5.45577
320.98	4.79315
321.195	4.53006
321.41	4.31488
321.625	5.05326
321.84	5.87969
322.055	5.97007
322.27	3.40195
322.485	3.18488
322.7	4.79488
322.915	5.24828
323.13	4.15204
323.345	6.08642
323.56	5.29181
323.775	5.38257
323.989	5.27095
324.204	4.79917
324.419	5.66688
324.634	3.59534
324.849	4.46396
325.064	7.12926
325.279	6.0892
325.493	5.21353
325.708	5.45647
325.923	3.83585
326.138	4.63579
326.352	6.24657
326.567	5.5448
326.782	4.15203
326.997	4.39388
327.211	5.2697
327.426	4.86511
327.641	4.69599
327.855	3.2342
328.07	5.59991
328.285	6.73521
328.499	4.34955
328.714	5.35077
328.928	5.17605
329.143	4.99698
329.358	5.86321
329.572	5.93446
329.787	6.45614
330.001	7.2655
330.216	3.28042
330.43	7.11917
330.645	5.91948
330.859	5.88633
331.074	3.87473
331.288	4.96129
331.503	6.71454
331.717	3.65977
331.931	4.91167
332.146	5.14482
332.36	6.95551
332.575	5.50783
332.789	4.92686
333.003	5.44813
333.218	5.73208
333.432	4.95344
333.646	5.94961
333.86	6.92539
334.075	6.97582
334.289	4.67704
334.503	3.63066
334.717	6.03814
334.932	5.1125
335.146	5.98911
335.36	4.03117
335.574	5.46184
335.788	5.20684
336.003	5.99321
336.217	6.01468
336.431	5.15158
336.645	4.50459
336.859	4.04732
337.073	5.00822
337.287	5.46355
337.501	4.13351
337.715	6.23268
337.929	5.83581
338.143	4.72032
338.357	5.19739
338.571	5.11367
338.785	6.42785
338.999	4.81732
339.213	4.89668
339.427	4.17986
339.641	6.57198
339.855	4.60119
340.069	4.38814
340.283	5.94478
340.497	6.59238
340.711	5.92174
340.924	5.37834
341.138	4.43766
341.352	4.07261
341.566	5.39338
341.78	3.99934
341.993	4.97483
342.207	4.72445
342.421	6.09979
342.635	5.26181
342.848	5.02868
343.062	2.83757
343.276	4.89994
343.49	7.39113
343.703	4.8252
343.917	6.422
344.131	6.71131
344.344	4.76623
344.558	5.07514
344.771	4.53571
344.985	6.66122
345.199	7.34225
345.412	5.89931
345.626	6.22438
345.839	4.13179
346.053	4.44176
346.266	4.7911
346.48	6.13449
346.693	6.09971
346.907	6.26285
347.12	4.63774
347.334	5.67009
347.547	5.96021
347.76	5.58955
347.974	6.42913
348.187	5.77167
348.401	5.45682
348.614	4.46204
348.827	5.41284
349.041	5.8747
349.254	4.04617
349.467	5.18059
349.681	4.69319
349.894	4.75309
350.107	6.82691
350.32	7.60111
350.534	4.36968
350.747	5.27624
350.96	4.77102
351.173	5.04171
351.386	5.44834
351.6	4.95664
351.813	5.49921
352.026	5.26846
352.239	4.64289
352.452	4.90256
352.665	6.73967
352.878	5.10851
353.092	7.7174
353.305	6.27252
353.518	5.72324
353.731	4.66932
353.944	6.75012
354.157	5.12866
354.37	5.49104
354.583	4.47488
354.796	4.7676
355.009	6.59628
355.222	5.96616
355.435	5.78083
355.647	7.06209
355.86	5.33572
356.073	6.07722
356.286	5.32615
356.499	7.08892
356.712	6.70698
356.925	6.56375
357.138	6.9279
357.35	5.40968
357.563	5.73076
357.776	6.50093
357.989	6.28515
358.201	6.89532
358.414	6.43218
358.627	7.50379
358.84	6.05223
359.052	5.23822
359.265	5.56756
359.478	6.97365
359.69	3.99447
359.903	7.14914
360.116	7.39286
360.328	5.09798
360.541	7.11669
360.753	6.04793
360.966	6.28451
361.179	6.66379
361.391	6.26322
361.604	6.05347
361.816	6.3276
362.029	6.28028
362.241	6.05458
362.454	6.71072
362.666	5.94951
362.879	7.18037
363.091	6.57583
363.304	6.2257
363.516	6.15179
363.728	5.78782
363.941	6.77247
364.153	6.82062
364.366	5.07215
364.578	5.59247
364.79	6.99991
365.003	6.741
365.215	6.04199
365.427	7.17933
365.639	7.23233
365.852	6.75747
366.064	7.7642
366.276	6.40439
366.488	6.70133
366.701	6.34767
366.913	6.1568
367.125	6.43715
367.337	5.86247
367.549	6.38286
367.762	6.32986
367.974	6.28615
368.186	6.20889
368.398	7.43746
368.61	6.70903
368.822	6.97744
369.034	6.13854
369.246	7.47767
369.458	8.77905
369.67	5.78548
369.882	7.92403
370.094	4.80668
370.306	7.47612
370.518	6.34074
370.73	6.19546
370.942	6.55094
371.154	6.73553
371.366	6.65005
371.578	7.41767
371.79	6.82426
372.002	7.71856
372.214	8.53452
372.425	6.7553
372.637	8.45349
372.849	7.25646
373.061	5.09709
373.273	7.12194
373.484	7.24463
373.696	7.51742
373.908	5.07939
374.12	7.42434
374.331	7.48595
374.543	6.16994
374.755	6.11032
374.967	6.72461
375.178	7.93078
375.39	6.87473
375.602	7.06591
375.813	5.62171
376.025	6.21794
376.236	7.27463
376.448	7.27169
376.66	7.03278
376.871	7.25124
377.083	7.74021
377.294	8.80805
377.506	6.87357
377.717	8.29043
377.929	7.53944
378.14	7.051
378.352	7.69687
378.563	7.98646
378.775	8.37874
378.986	6.41154
379.197	7.43713
379.409	6.62804
379.62	7.71169
379.832	7.50803
380.043	7.07549
380.254	7.52953
380.466	6.42065
380.677	9.60565
380.888	8.81336
381.1	9.62306
381.311	9.61719
381.522	7.99092
381.733	9.67878
381.945	7.43974
382.156	7.23357
382.367	7.46003
382.578	9.75157
382.789	10.04492
383.001	6.9752
383.212	9.22035
383.423	9.1568
383.634	8.36978
383.845	8.27149
384.056	7.42482
384.267	7.83541
384.478	7.96485
384.69	6.92828
384.901	8.44651
385.112	7.86624
385.323	9.36645
385.534	8.01665
385.745	8.40233
385.956	8.07659
386.167	7.21064
386.378	8.20222
386.588	7.41007
386.799	7.28303
387.01	6.81806
387.221	8.6507
387.432	8.18728
387.643	9.19147
387.854	7.77827
388.065	7.68479
388.275	7.78136
388.486	7.4132
388.697	8.02469
388.908	7.59063
389.119	8.82666
389.329	9.07627
389.54	8.17458
389.751	8.40844
389.962	8.99168
390.172	8.01833
390.383	8.23118
390.594	7.6635
390.804	7.67804
391.015	8.02347
391.226	8.41458
391.436	8.82411
391.647	8.48
391.858	8.59062
392.068	7.08131
392.279	7.75458
392.489	8.56118
392.7	8.89671
392.91	8.06777
393.121	7.80198
393.331	8.62829
393.542	9.18278
393.752	9.14224
393.963	8.85315
394.173	8.90021
394.384	8.96996
394.594	8.53958
394.804	7.68869
395.015	8.38688
395.225	8.91389
395.436	7.86413
395.646	8.84502
395.856	8.2261
396.067	7.22666
396.277	9.01323
396.487	8.81543
396.697	8.72596
396.908	9.13538
397.118	8.91388
397.328	8.54665
397.538	9.16969
397.749	8.13449
397.959	9.20636
398.169	8.65995
398.379	7.50778
398.589	8.72365
398.8	8.97668
399.01	8.60616
399.22	8.50433
399.43	10.1409
399.64	8.58631
399.85	9.01936
400.06	8.71295
400.27	8.17335
400.48	8.11118
400.69	9.24885
400.9	8.27693
401.11	7.71251
401.32	9.16612
401.53	7.95942
401.74	9.65581
401.95	8.74018
402.16	8.29846
402.37	8.80435
402.58	8.25414
402.79	8.9989
403	9.37071
403.209	8.06383
403.419	9.40533
403.629	8.28675
403.839	9.68099
404.049	9.40759
404.258	8.55468
404.468	8.56156
404.678	9.50384
404.888	9.79026
405.097	8.95816
405.307	8.92709
405.517	9.41189
405.727	9.16924
405.936	8.59583
406.146	9.12121
406.356	9.85187
406.565	8.83799
406.775	8.61947
406.984	8.32242
407.194	10.29449
407.404	8.87885
407.613	9.11693
407.823	9.63978
408.032	9.88162
408.242	9.46335
408.451	8.51144
408.661	8.81037
408.87	10.1929
409.08	8.48796
409.289	9.18865
409.499	9.1864
409.708	8.97026
409.918	7.70515
410.127	9.40735
410.336	10.29819
410.546	9.53762
410.755	8.74986
410.964	8.82601
411.174	8.02953
411.383	9.3678
411.592	9.13871
411.802	8.47139
412.011	9.50258
412.22	8.93902
412.429	9.83461
412.639	9.93848
412.848	9.91104
413.057	10.36664
413.266	9.71172
413.475	9.15006
413.685	9.57471
413.894	9.73562
414.103	9.69829
414.312	9.80444
414.521	9.01948
414.73	9.43153
414.939	10.72399
415.148	9.42589
415.357	9.35959
415.566	9.38641
415.776	9.24275
415.985	9.07598
416.194	10.12428
416.403	10.72827
416.611	8.69535
416.82	9.31648
417.029	9.88387
417.238	9.31865
417.447	9.3223
417.656	9.72756
417.865	9.65157
418.074	10.11713
418.283	10.87349
418.492	12.24501
418.7	11.78089
418.909	13.62799
419.118	12.15467
419.327	12.89271
419.536	12.62893
419.744	12.89199
419.953	14.57655
420.162	14.74039
420.371	13.96716
420.579	14.78371
420.788	15.64736
420.997	16.00965
421.205	16.14907
421.414	15.80862
421.623	16.10369
421.831	15.42557
422.04	16.00664
422.249	14.97572
422.457	15.10826
422.666	14.16192
422.874	15.56941
423.083	15.32717
423.291	15.49104
423.5	15.59462
423.708	15.95513
423.917	16.75082
424.125	15.9952
424.334	15.75002
424.542	17.7239
424.751	17.01946
424.959	16.40677
425.167	16.73251
425.376	16.5426
425.584	14.86051
425.793	14.70178
426.001	13.38303
