Data from WindowProjectSample_Transmission__53__00053.txt Node

Date: Sat May 03 16:49:10 EDT 2025
User: jessi
Spectrometer: SR400872
Trigger mode: 0
Integration Time (sec): 5.000010E-1
Scans to average: 6
Electric dark correction enabled: true
Nonlinearity correction enabled: true
Boxcar width: 0
XAxis mode: Wavelengths
Number of Pixels in Spectrum: 3648
>>>>>Begin Spectral Data<<<<<
184.909	178231.77882
185.132	1678.94633
185.355	-2042.01547
185.578	3315.9585
185.801	-260.88484
186.024	5919.17415
186.247	1183.31352
186.47	889.33301
186.693	-293.20828
186.916	283.90139
187.139	9997.84036
187.362	3300.97337
187.585	2866.66822
187.808	-1676.19801
188.031	-99.24681
188.254	6984.43586
188.476	460.00371
188.699	-4120.27987
188.922	-273.21377
189.145	-4074.18685
189.368	-386.68775
189.591	-850.99062
189.813	-2070.73403
190.036	4537.64253
190.259	3190.66348
190.482	2161.52202
190.705	8670.05363
190.927	-1630.77409
191.15	-1572.0581
191.373	4311.4983
191.595	-2042.92407
191.818	9215.73414
192.041	-177.96881
192.263	-2237.0691
192.486	-832.04459
192.709	9159.22045
192.931	-2519.97475
193.154	-1991.06135
193.377	4275.11398
193.599	5719.69261
193.822	-1901.0445
194.044	-1793.01604
194.267	518.37315
194.489	191.19004
194.712	2171.84169
194.934	3488.24457
195.157	-8644.08198
195.379	1965.31735
195.602	5244.87263
195.824	5440.41455
196.047	-7363.47964
196.269	-10237.67807
196.492	-1092.19484
196.714	-5081.66554
196.936	4486.72844
197.159	-2391.35139
197.381	-495.38407
197.604	993.34661
197.826	-3163.08687
198.048	-1229.37791
198.271	-12196.21329
198.493	9461.85608
198.715	-2367.45112
198.938	-833.89797
199.16	-3562.00169
199.382	1707.98469
199.604	-1266.46977
199.827	-1239.55922
200.049	-4064.55587
200.271	2339.79154
200.493	-23353.77798
200.715	4865.71483
200.938	12655.42541
201.16	-215681.34751
201.382	-5697.64413
201.604	-1031.67317
201.826	-6872.30357
202.048	-7023.24101
202.27	-4420.20434
202.492	-3752.28062
202.715	-1302.68784
202.937	-3345.02799
203.159	1084.96038
203.381	-86901.17886
203.603	-984.07113
203.825	-1412.45097
204.047	2120.72103
204.269	-824.56821
204.491	6869.03677
204.713	-9125.82655
204.935	39186.35645
205.156	2009.71624
205.378	-7853.11567
205.6	-1480.38701
205.822	6332.86356
206.044	-207.02259
206.266	-2015.74224
206.488	759.32385
206.71	-484255.34544
206.932	-14903.74485
207.153	10313.71912
207.375	-2204.52462
207.597	14964.10363
207.819	1656.72451
208.041	6553.52161
208.262	708.70195
208.484	-921.50913
208.706	-877.55185
208.927	10084.10868
209.149	-8637.91566
209.371	-2655.68966
209.593	-2082.72707
209.814	-3763.81247
210.036	2201.82702
210.258	-595.92409
210.479	1868.07087
210.701	767.03537
210.922	4151.71601
211.144	-1476.31351
211.366	5625.94788
211.587	-518.71149
211.809	-3479.97367
212.03	-2309.86025
212.252	-443.14847
212.473	2348.79561
212.695	-820.6009
212.916	-825.91695
213.138	588.97165
213.359	-1150.64751
213.581	-2997.35407
213.802	-1145.79138
214.024	10678.34249
214.245	-933.33463
214.466	-217.83573
214.688	-3489.10903
214.909	-684.67993
215.131	9054.99336
215.352	-1092.3574
215.573	-249685.80878
215.795	4694.92183
216.016	-3828.3999
216.237	-628.24342
216.459	-11229.96243
216.68	-1573.43929
216.901	-1672.60593
217.122	1594.37764
217.344	-8343.78931
217.565	-1611.42337
217.786	22407.61635
218.007	954.98295
218.228	-3743.67998
218.45	-5847.66901
218.671	-1573.48355
218.892	887.34027
219.113	1684.43671
219.334	367.29505
219.555	-6129.85366
219.776	35545.46009
219.997	-6914.25492
220.219	-9789.05242
220.44	-4721.95002
220.661	-1084.56094
220.882	12206.98945
221.103	-802.28344
221.324	2351.40556
221.545	-6685.40996
221.766	-1431.55754
221.987	-438.90497
222.208	1686.37147
222.429	6538.83446
222.65	-107.23523
222.87	-675.46522
223.091	36270.64125
223.312	817.6724
223.533	-2116.73357
223.754	3492.52188
223.975	1730.04176
224.196	-751.01429
224.417	-29084.12034
224.637	-2371.06665
224.858	59.10029
225.079	3799.00845
225.3	1535.18508
225.521	3598.85811
225.741	-2548.09956
225.962	1595.5351
226.183	893.05918
226.404	1812.5974
226.624	1830.44849
226.845	1231.86795
227.066	2330.56377
227.286	605.70432
227.507	383.60168
227.728	386.36346
227.948	529.89999
228.169	121.98621
228.389	122.87515
228.61	54.15903
228.831	82.45391
229.051	8.34651
229.272	46.18178
229.492	61.79632
229.713	20.74737
229.933	51.76575
230.154	38.00281
230.374	67.37869
230.595	53.43408
230.815	36.45427
231.036	50.66518
231.256	-7.61072
231.477	104.45118
231.697	63.11627
231.917	58.75896
232.138	81.08033
232.358	171.66018
232.579	172.93567
232.799	29.37144
233.019	159.14576
233.24	242.01034
233.46	61.31963
233.68	102.1047
233.901	84.39075
234.121	40.30298
234.341	16.89156
234.561	-4.60992
234.782	35.88905
235.002	114.70207
235.222	-3.63116
235.442	90.80798
235.662	41.27659
235.883	106.4632
236.103	83.18155
236.323	69.72835
236.543	52.12115
236.763	67.99713
236.983	66.42524
237.203	71.18442
237.423	107.63896
237.643	150.14486
237.864	138.60448
238.084	31.75694
238.304	51.23477
238.524	88.66715
238.744	63.59154
238.964	105.88218
239.184	100.3078
239.404	101.44189
239.624	50.32726
239.843	95.90813
240.063	49.6406
240.283	32.96967
240.503	34.46419
240.723	31.86342
240.943	16.90777
241.163	26.15098
241.383	19.40359
241.603	9.87114
241.822	11.92165
242.042	7.77802
242.262	10.45888
242.482	11.1311
242.702	13.77929
242.921	4.85355
243.141	9.56988
243.361	8.75042
243.581	13.19713
243.8	10.06435
244.02	6.72688
244.24	13.51093
244.459	13.44105
244.679	26.83837
244.899	16.52648
245.118	20.39243
245.338	15.57808
245.558	20.92297
245.777	11.90934
245.997	13.49014
246.216	13.45225
246.436	8.02441
246.655	5.23518
246.875	4.05428
247.094	7.32833
247.314	2.44648
247.533	4.07549
247.753	5.72702
247.972	4.56504
248.192	1.71702
248.411	2.80059
248.631	5.10438
248.85	6.64707
249.07	4.84244
249.289	8.36286
249.508	6.77934
249.728	10.03287
249.947	11.40457
250.166	11.75153
250.386	6.21328
250.605	9.99453
250.824	14.42038
251.044	10.67394
251.263	35.86739
251.482	19.05422
251.701	16.38406
251.921	-0.14225
252.14	5.13404
252.359	5.35858
252.578	13.79863
252.798	4.46713
253.017	12.53196
253.236	6.91822
253.455	7.54694
253.674	16.0029
253.893	7.68562
254.112	9.94729
254.331	16.04609
254.551	14.82539
254.77	7.33101
254.989	21.09637
255.208	19.02655
255.427	21.57281
255.646	18.91666
255.865	31.70722
256.084	11.65889
256.303	15.0385
256.522	20.38016
256.741	4.98393
256.96	5.35985
257.179	11.46085
257.397	15.89724
257.616	8.36868
257.835	8.86241
258.054	21.17969
258.273	13.39179
258.492	15.08197
258.711	8.71761
258.93	3.94286
259.148	4.803
259.367	5.35047
259.586	6.83175
259.805	3.2335
260.023	6.73463
260.242	4.9951
260.461	3.45476
260.68	2.18642
260.898	6.08234
261.117	1.96205
261.336	1.42578
261.554	5.42987
261.773	5.08126
261.992	0.71456
262.21	4.95263
262.429	5.59412
262.648	10.13805
262.866	12.08751
263.085	7.40558
263.303	7.01233
263.522	12.27354
263.74	13.64118
263.959	20.95955
264.178	10.65657
264.396	9.13176
264.615	7.09713
264.833	17.01807
265.051	14.17888
265.27	14.06885
265.488	15.82431
265.707	9.86035
265.925	15.60569
266.144	6.97089
266.362	8.77815
266.58	8.79467
266.799	6.80512
267.017	8.14734
267.235	7.22231
267.454	4.27466
267.672	2.57671
267.89	5.93806
268.109	6.41127
268.327	6.11104
268.545	1.22701
268.763	5.79261
268.982	2.76538
269.2	6.60086
269.418	3.82774
269.636	3.16051
269.854	6.16108
270.073	4.93183
270.291	2.49007
270.509	2.7106
270.727	5.74753
270.945	10.11752
271.163	9.47129
271.381	2.46158
271.599	3.73951
271.817	6.96079
272.036	2.40009
272.254	4.05879
272.472	3.50682
272.69	3.11821
272.908	3.18256
273.126	5.60473
273.344	7.14971
273.562	2.65741
273.779	3.66073
273.997	5.11779
274.215	6.04839
274.433	4.55241
274.651	6.12073
274.869	6.75801
275.087	3.65498
275.305	5.58743
275.523	3.30381
275.74	4.43979
275.958	7.88414
276.176	10.46916
276.394	3.42695
276.612	4.37435
276.829	4.39902
277.047	3.39845
277.265	4.16242
277.483	5.16191
277.7	5.86585
277.918	4.80611
278.136	8.67671
278.353	4.30083
278.571	1.80673
278.789	6.69759
279.006	1.33854
279.224	3.87486
279.442	7.20183
279.659	4.63794
279.877	3.11364
280.094	7.40376
280.312	1.52566
280.529	4.19858
280.747	1.28838
280.964	3.73607
281.182	8.12629
281.399	3.97511
281.617	5.13917
281.834	3.73532
282.052	3.14397
282.269	4.10553
282.487	3.07758
282.704	2.64066
282.921	3.35428
283.139	4.1932
283.356	5.98043
283.574	5.08735
283.791	2.36677
284.008	7.18018
284.226	3.69761
284.443	4.32785
284.66	5.58152
284.877	4.81314
285.095	2.93405
285.312	2.17583
285.529	1.53197
285.746	1.28665
285.964	2.77511
286.181	1.86336
286.398	2.56345
286.615	3.67665
286.832	3.52477
287.05	1.14489
287.267	2.40082
287.484	2.78555
287.701	3.62301
287.918	3.65573
288.135	3.7391
288.352	1.60004
288.569	2.22517
288.786	3.36794
289.003	2.47757
289.22	3.85949
289.437	2.71572
289.654	3.68429
289.871	4.16886
290.088	4.21216
290.305	3.17768
290.522	2.5299
290.739	3.02048
290.956	4.11604
291.173	5.22156
291.39	4.64586
291.607	3.05482
291.824	2.4832
292.04	1.75045
292.257	3.95952
292.474	4.51593
292.691	2.86423
292.908	1.31694
293.125	2.55356
293.341	1.57522
293.558	6.74166
293.775	2.68069
293.992	2.77024
294.208	1.08072
294.425	1.59333
294.642	2.38597
294.858	3.7991
295.075	0.87097
295.292	2.81559
295.508	3.1971
295.725	5.06189
295.942	2.42604
296.158	1.58508
296.375	2.89116
296.591	2.19426
296.808	2.32857
297.024	2.56552
297.241	2.83084
297.458	3.20253
297.674	0.34269
297.891	2.45318
298.107	1.78365
298.323	1.54328
298.54	3.76095
298.756	1.80808
298.973	0.73683
299.189	4.10674
299.406	1.40357
299.622	3.9555
299.838	3.88119
300.055	3.78702
300.271	0.83048
300.487	1.50518
300.704	1.49166
300.92	1.10922
301.136	5.42617
301.353	3.70056
301.569	2.69077
301.785	3.03678
302.001	3.86193
302.218	3.21981
302.434	2.97322
302.65	0.99308
302.866	2.38002
303.083	5.14165
303.299	4.97889
303.515	2.91237
303.731	2.91093
303.947	1.01432
304.163	1.48078
304.379	2.91688
304.595	3.40425
304.812	1.83717
305.028	1.59559
305.244	2.18191
305.46	3.76651
305.676	3.7884
305.892	4.44473
306.108	2.72364
306.324	2.18719
306.54	4.97765
306.756	3.52209
306.972	3.41076
307.187	2.28944
307.403	4.71665
307.619	2.03625
307.835	3.92708
308.051	4.84453
308.267	0.96405
308.483	4.05694
308.699	3.26781
308.914	2.85776
309.13	2.47249
309.346	0.68936
309.562	1.54109
309.778	0.96271
309.993	3.28822
310.209	2.54372
310.425	1.05592
310.641	2.25762
310.856	1.27771
311.072	1.17502
311.288	2.43627
311.503	2.64972
311.719	0.40836
311.935	0.41202
312.15	2.86377
312.366	2.53895
312.581	3.36594
312.797	2.58251
313.013	3.24459
313.228	1.81849
313.444	2.74886
313.659	1.89637
313.875	3.03463
314.09	2.35485
314.306	3.93437
314.521	3.43416
314.737	3.43476
314.952	3.07741
315.168	2.26161
315.383	3.38978
315.599	2.26537
315.814	1.97009
316.029	3.60455
316.245	1.08643
316.46	0.93195
316.675	4.43756
316.891	5.15738
317.106	6.22319
317.321	3.65506
317.537	3.39725
317.752	3.39464
317.967	3.49804
318.183	1.87529
318.398	2.32568
318.613	3.99581
318.828	4.64972
319.043	3.7502
319.259	2.22898
319.474	3.13266
319.689	4.02123
319.904	0.61404
320.119	3.39019
320.334	3.09743
320.549	2.48285
320.765	4.02434
320.98	3.06786
321.195	3.71873
321.41	2.53129
321.625	3.48312
321.84	4.94416
322.055	4.96048
322.27	2.03385
322.485	1.26143
322.7	2.72802
322.915	4.18004
323.13	1.92819
323.345	4.81884
323.56	3.66235
323.775	3.43759
323.989	3.49396
324.204	2.85328
324.419	3.56662
324.634	1.16154
324.849	2.38952
325.064	5.79531
325.279	3.97995
325.493	3.47011
325.708	4.08774
325.923	1.64999
326.138	1.71427
326.352	4.59941
326.567	3.78712
326.782	2.19312
326.997	1.81333
327.211	3.35236
327.426	3.23942
327.641	2.31035
327.855	0.88528
328.07	3.31731
328.285	4.6085
328.499	2.33207
328.714	3.30759
328.928	3.94382
329.143	3.28631
329.358	3.94258
329.572	3.81858
329.787	4.28344
330.001	5.88843
330.216	0.93298
330.43	4.80311
330.645	4.79178
330.859	3.80158
331.074	2.09283
331.288	3.02793
331.503	4.33648
331.717	1.19518
331.931	2.64833
332.146	2.8245
332.36	4.87672
332.575	3.54549
332.789	2.84433
333.003	2.63457
333.218	3.71427
333.432	2.38829
333.646	3.51132
333.86	4.75484
334.075	4.74652
334.289	2.34991
334.503	1.63079
334.717	3.75208
334.932	3.56425
335.146	5.01587
335.36	2.43818
335.574	3.76928
335.788	3.44515
336.003	4.12102
336.217	3.86162
336.431	3.64465
336.645	2.19421
336.859	1.36832
337.073	2.54614
337.287	2.8901
337.501	1.51914
337.715	2.99666
337.929	3.65148
338.143	1.5115
338.357	2.89682
338.571	1.53267
338.785	3.48376
338.999	2.16677
339.213	2.3043
339.427	1.07751
339.641	4.03468
339.855	2.58962
340.069	2.0731
340.283	3.67835
340.497	4.97587
340.711	3.0857
340.924	2.23723
341.138	1.57295
341.352	1.12116
341.566	3.23043
341.78	0.86914
341.993	2.15353
342.207	1.5907
342.421	2.96082
342.635	2.86481
342.848	1.96762
343.062	0.33501
343.276	2.02665
343.49	5.34551
343.703	1.92748
343.917	3.49829
344.131	3.75109
344.344	1.77136
344.558	1.93573
344.771	1.77307
344.985	4.21452
345.199	4.39024
345.412	2.92504
345.626	2.89829
345.839	0.86471
346.053	1.37028
346.266	1.37081
346.48	3.67717
346.693	2.99184
346.907	3.31806
347.12	1.76127
347.334	2.99008
347.547	2.9477
347.76	2.43943
347.974	4.02371
348.187	3.00739
348.401	2.07582
348.614	2.11692
348.827	2.10417
349.041	3.46945
349.254	0.91695
349.467	2.24994
349.681	1.11415
349.894	1.79361
350.107	4.21801
350.32	4.296
350.534	0.58695
350.747	1.99727
350.96	1.54613
351.173	1.91655
351.386	2.28547
351.6	1.97987
351.813	1.74044
352.026	2.60505
352.239	1.25163
352.452	1.99
352.665	3.51893
352.878	2.2705
353.092	5.05954
353.305	3.07353
353.518	2.97577
353.731	1.55009
353.944	4.12544
354.157	1.76985
354.37	1.41236
354.583	1.102
354.796	0.89851
355.009	3.6499
355.222	2.37832
355.435	2.43164
355.647	3.63569
355.86	1.35178
356.073	2.07715
356.286	1.83782
356.499	3.11816
356.712	2.51279
356.925	2.78287
357.138	3.39494
357.35	1.34438
357.563	2.00781
357.776	2.51565
357.989	1.88928
358.201	2.78331
358.414	2.29129
358.627	3.54533
358.84	1.96184
359.052	1.22389
359.265	1.20527
359.478	3.45084
359.69	-0.55846
359.903	2.76318
360.116	3.14409
360.328	0.54062
360.541	3.22954
360.753	1.16587
360.966	1.49889
361.179	1.66662
361.391	1.62094
361.604	1.10785
361.816	1.51148
362.029	1.32746
362.241	1.22807
362.454	1.52373
362.666	1.26777
362.879	2.06166
363.091	1.76971
363.304	1.25743
363.516	1.91276
363.728	0.87774
363.941	2.54758
364.153	1.46384
364.366	0.10582
364.578	0.91952
364.79	2.57683
365.003	2.05248
365.215	1.76451
365.427	2.40349
365.639	3.28634
365.852	2.53367
366.064	4.09444
366.276	1.47202
366.488	2.45343
366.701	1.49122
366.913	1.7346
367.125	1.60714
367.337	1.46163
367.549	1.61599
367.762	2.03561
367.974	2.22228
368.186	1.50586
368.398	3.18418
368.61	2.65092
368.822	2.74716
369.034	2.18137
369.246	2.89619
369.458	4.58699
369.67	1.11734
369.882	3.89642
370.094	0.08412
370.306	3.93684
370.518	1.72258
370.73	1.06291
370.942	1.26022
371.154	1.71173
371.366	1.52373
371.578	2.5108
371.79	1.33882
372.002	3.22796
372.214	3.91796
372.425	2.19898
372.637	3.29939
372.849	1.9145
373.061	-0.08621
373.273	2.45142
373.484	2.56007
373.696	2.95332
373.908	-0.05249
374.12	3.07645
374.331	2.67595
374.543	1.27749
374.755	1.14883
374.967	2.18751
375.178	3.03172
375.39	1.97158
375.602	2.32067
375.813	0.94234
376.025	0.71428
376.236	1.92239
376.448	2.07591
376.66	1.75621
376.871	1.81459
377.083	3.0553
377.294	3.41193
377.506	1.64252
377.717	3.21326
377.929	2.30355
378.14	1.41739
378.352	2.47698
378.563	2.68387
378.775	3.29425
378.986	1.16845
379.197	1.97308
379.409	1.70027
379.62	2.86505
379.832	2.35865
380.043	1.92296
380.254	2.12227
380.466	0.85345
380.677	4.70645
380.888	4.37758
381.1	4.50344
381.311	4.55367
381.522	2.41273
381.733	5.0944
381.945	2.10289
382.156	2.19146
382.367	1.68918
382.578	5.1554
382.789	4.94656
383.001	1.79715
383.212	3.57162
383.423	3.94932
383.634	3.42346
383.845	2.86295
384.056	1.81406
384.267	2.28784
384.478	2.19739
384.69	1.09924
384.901	2.8989
385.112	2.77045
385.323	3.80461
385.534	2.79424
385.745	3.0305
385.956	2.78629
386.167	1.3423
386.378	2.83104
386.588	1.60378
386.799	1.55247
387.01	0.89382
387.221	3.30793
387.432	2.3351
387.643	4.1283
387.854	2.10895
388.065	2.22038
388.275	2.12191
388.486	2.13119
388.697	2.47063
388.908	2.24748
389.119	3.65988
389.329	4.05061
389.54	2.69046
389.751	3.03411
389.962	3.84045
390.172	2.61133
390.383	2.42795
390.594	1.93493
390.804	1.95188
391.015	2.22745
391.226	2.88258
391.436	3.24929
391.647	3.12194
391.858	3.23277
392.068	1.15294
392.279	1.88319
392.489	2.94884
392.7	3.62991
392.91	2.16946
393.121	2.35275
393.331	3.36648
393.542	3.89184
393.752	3.4787
393.963	3.23306
394.173	3.22024
394.384	3.60921
394.594	2.98934
394.804	1.87894
395.015	2.85574
395.225	3.61158
395.436	2.16096
395.646	3.53209
395.856	2.56739
396.067	1.90649
396.277	4.09144
396.487	3.56878
396.697	3.55499
396.908	4.05226
397.118	3.78691
397.328	3.46966
397.538	4.13603
397.749	2.69298
397.959	4.02919
398.169	3.81961
398.379	2.18395
398.589	3.46981
398.8	3.67493
399.01	3.41571
399.22	3.2032
399.43	5.44859
399.64	3.24311
399.85	4.06741
400.06	3.63778
400.27	2.95453
400.48	3.43008
400.69	4.69478
400.9	3.1129
401.11	2.75846
401.32	4.50771
401.53	3.11183
401.74	4.98042
401.95	4.27471
402.16	3.14505
402.37	4.0071
402.58	3.40138
402.79	4.32859
403	4.4671
403.209	3.29878
403.419	4.64165
403.629	3.30974
403.839	4.80456
404.049	4.58231
404.258	3.5309
404.468	3.52626
404.678	4.67861
404.888	5.11066
405.097	4.00393
405.307	4.02996
405.517	4.55855
405.727	4.67553
405.936	3.76416
406.146	4.68802
406.356	5.39995
406.565	4.33464
406.775	3.79848
406.984	3.97343
407.194	6.1115
407.404	4.43771
407.613	4.72277
407.823	5.3056
408.032	5.46224
408.242	5.40025
408.451	4.2165
408.661	4.30897
408.87	6.02757
409.08	3.98456
409.289	4.75217
409.499	4.69915
409.708	4.49105
409.918	2.94407
410.127	4.77821
410.336	6.09881
410.546	5.42051
410.755	4.35684
410.964	4.50533
411.174	3.87457
411.383	5.23
411.592	5.00878
411.802	3.96681
412.011	5.72738
412.22	4.69585
412.429	5.89334
412.639	6.23327
412.848	5.94621
413.057	6.35604
413.266	5.84476
413.475	5.06997
413.685	5.75065
413.894	5.86259
414.103	5.83206
414.312	5.81167
414.521	4.60643
414.73	5.29853
414.939	7.07095
415.148	5.57634
415.357	5.56446
415.566	5.11795
415.776	5.08912
415.985	4.98902
416.194	6.12127
416.403	7.18764
416.611	4.31986
416.82	5.0017
417.029	5.67228
417.238	5.04461
417.447	5.04912
417.656	5.55326
417.865	5.087
418.074	5.42151
418.283	5.74203
418.492	6.65559
418.7	6.34306
418.909	7.37491
419.118	6.12393
419.327	6.62426
419.536	6.12577
419.744	5.99315
419.953	7.29002
420.162	7.26195
420.371	6.38945
420.579	6.65555
420.788	7.75291
420.997	7.88179
421.205	8.0891
421.414	7.70391
421.623	7.91559
421.831	7.42949
422.04	8.05563
422.249	7.21531
422.457	7.54073
422.666	7.01388
422.874	8.05025
423.083	7.96656
423.291	7.76136
423.5	7.88061
423.708	8.00888
423.917	8.52728
424.125	7.93365
424.334	7.62373
424.542	9.57719
424.751	8.96462
424.959	8.46573
425.167	8.88157
425.376	8.72711
425.584	7.68599
425.793	7.79862
426.001	6.65944
