Data from WindowProjectSample_Transmission__45__00045.txt Node

Date: Sat May 03 16:37:06 EDT 2025
User: jessi
Spectrometer: SR400872
Trigger mode: 0
Integration Time (sec): 5.000010E-1
Scans to average: 6
Electric dark correction enabled: true
Nonlinearity correction enabled: true
Boxcar width: 0
XAxis mode: Wavelengths
Number of Pixels in Spectrum: 3648
>>>>>Begin Spectral Data<<<<<
184.909	179965.73226
185.132	1626.0002
185.355	-2013.06974
185.578	3343.24076
185.801	-697.58855
186.024	5829.43991
186.247	1120.97674
186.47	891.44453
186.693	-437.55084
186.916	239.59194
187.139	10214.33279
187.362	3813.13096
187.585	2688.55876
187.808	-1296.35051
188.031	-121.98439
188.254	6595.80581
188.476	567.77194
188.699	-3980.42106
188.922	-318.38742
189.145	-4217.90537
189.368	-408.5982
189.591	-989.14713
189.813	-2168.16383
190.036	4876.33107
190.259	3576.17323
190.482	2211.88011
190.705	8604.79642
190.927	-1592.83538
191.15	-1675.27052
191.373	4829.68131
191.595	-2036.99443
191.818	9018.09758
192.041	-284.36214
192.263	-2510.88089
192.486	-915.05039
192.709	9608.15483
192.931	-2549.49514
193.154	-1996.21302
193.377	4329.77494
193.599	5934.95451
193.822	-1803.95387
194.044	-1880.23268
194.267	597.93128
194.489	10.30101
194.712	2090.90074
194.934	3468.12545
195.157	-7134.68309
195.379	2291.33933
195.602	4956.41419
195.824	6112.15012
196.047	-8345.31849
196.269	-10501.45843
196.492	-1148.71786
196.714	-5023.6084
196.936	4469.79163
197.159	-2434.09205
197.381	-542.5701
197.604	1026.15223
197.826	-3416.20167
198.048	-1287.73738
198.271	-12288.49812
198.493	10100.44411
198.715	-2536.27274
198.938	-608.278
199.16	-3722.59745
199.382	1724.85756
199.604	-1452.03559
199.827	-1248.17063
200.049	-4252.83235
200.271	2397.18506
200.493	-26317.17658
200.715	4775.91335
200.938	12720.49053
201.16	-240716.31594
201.382	-5722.25511
201.604	-1045.53095
201.826	-6177.60864
202.048	-7184.32934
202.27	-4820.47956
202.492	-3860.38656
202.715	-1401.74639
202.937	-3497.2514
203.159	1070.4645
203.381	-93850.24193
203.603	-1003.15502
203.825	-1354.04245
204.047	2022.55219
204.269	-859.68101
204.491	6946.85194
204.713	-8833
204.935	37009.81806
205.156	2060.70314
205.378	-7815.75778
205.6	-1645.85332
205.822	6472.3169
206.044	-248.45236
206.266	-1984.12487
206.488	741.01504
206.71	-537108.49137
206.932	-15833.61129
207.153	11131.13007
207.375	-2233.4832
207.597	15005.03087
207.819	1682.09514
208.041	6444.31155
208.262	646.35132
208.484	-846.37888
208.706	-842.29625
208.927	10057.49449
209.149	-7152.47855
209.371	-2622.02962
209.593	-1862.74238
209.814	-4032.8071
210.036	3023.16327
210.258	-708.21777
210.479	1967.31436
210.701	810.20111
210.922	4159.68366
211.144	-1563.39358
211.366	6061.60951
211.587	-434.58386
211.809	-3732.72582
212.03	-2290.24041
212.252	-353.88979
212.473	2541.85398
212.695	-749.44882
212.916	-856.91366
213.138	733.28612
213.359	-1236.69224
213.581	-3134.14177
213.802	-1438.08512
214.024	10694.40861
214.245	-919.24597
214.466	-160.31609
214.688	-3715.17762
214.909	-697.3603
215.131	9303.38765
215.352	-1190.521
215.573	-247115.23924
215.795	4428.76831
216.016	-3883.95148
216.237	-556.77462
216.459	-11692.64004
216.68	-1554.60348
216.901	-1757.42512
217.122	1792.27473
217.344	-8633.42583
217.565	-1576.82065
217.786	22881.68593
218.007	911.87273
218.228	-3705.34294
218.45	-5773.3788
218.671	-1456.35729
218.892	861.02377
219.113	1652.83082
219.334	363.30142
219.555	-6325.46298
219.776	33370.41518
219.997	-6497.01667
220.219	-10145.92138
220.44	-4889.04588
220.661	-1220.3063
220.882	12086.74528
221.103	-928.26939
221.324	2231.07158
221.545	-6301.97441
221.766	-1452.27262
221.987	-464.94085
222.208	1857.8063
222.429	6659.8303
222.65	-198.27797
222.87	-803.04426
223.091	39280.53598
223.312	663.40868
223.533	-2062.79839
223.754	3731.25881
223.975	1618.71601
224.196	-746.64664
224.417	-29846.86686
224.637	-2166.83116
224.858	517.36511
225.079	3846.93571
225.3	1572.60065
225.521	3562.68287
225.741	-2593.22028
225.962	1626.70797
226.183	1121.5892
226.404	1851.8597
226.624	1865.05735
226.845	1376.36882
227.066	2310.0008
227.286	676.48022
227.507	390.28369
227.728	381.0038
227.948	535.06208
228.169	139.51986
228.389	131.29392
228.61	54.72278
228.831	80.31738
229.051	10.87029
229.272	46.63461
229.492	62.77547
229.713	20.37915
229.933	49.00927
230.154	41.93634
230.374	67.5289
230.595	50.843
230.815	36.58358
231.036	50.34978
231.256	-12.55992
231.477	110.82684
231.697	65.04658
231.917	56.83719
232.138	82.3081
232.358	192.69411
232.579	174.80233
232.799	18.8412
233.019	155.18505
233.24	230.5152
233.46	65.0667
233.68	97.0222
233.901	88.33241
234.121	44.6337
234.341	24.2694
234.561	-1.02896
234.782	32.35506
235.002	120.60163
235.222	1.99721
235.442	89.91219
235.662	45.30357
235.883	101.99336
236.103	91.44269
236.323	57.46765
236.543	50.59752
236.763	77.61707
236.983	63.08437
237.203	77.19931
237.423	103.09786
237.643	149.99118
237.864	143.78953
238.084	32.8945
238.304	49.7866
238.524	87.49573
238.744	71.18619
238.964	112.4419
239.184	103.37114
239.404	103.59301
239.624	51.13788
239.843	94.91762
240.063	51.16596
240.283	35.83874
240.503	37.64647
240.723	36.61969
240.943	17.33024
241.163	26.72539
241.383	19.66432
241.603	10.12225
241.822	11.83152
242.042	8.92776
242.262	10.09395
242.482	11.95952
242.702	14.59202
242.921	4.63294
243.141	10.30889
243.361	8.6442
243.581	13.12202
243.8	10.60124
244.02	6.93896
244.24	14.73387
244.459	14.25523
244.679	27.49172
244.899	17.16636
245.118	20.95511
245.338	17.32364
245.558	20.75717
245.777	11.74211
245.997	13.43798
246.216	13.83509
246.436	7.81289
246.655	5.33478
246.875	4.42409
247.094	7.89414
247.314	2.85391
247.533	4.40831
247.753	5.67423
247.972	4.22016
248.192	1.52703
248.411	3.2713
248.631	5.38058
248.85	6.74715
249.07	5.29752
249.289	8.40981
249.508	7.01427
249.728	10.08719
249.947	11.15886
250.166	12.447
250.386	6.54868
250.605	11.86908
250.824	14.71801
251.044	10.70983
251.263	37.11569
251.482	19.41846
251.701	16.77726
251.921	0.33693
252.14	5.25085
252.359	5.83181
252.578	14.55121
252.798	4.1515
253.017	12.88269
253.236	6.84131
253.455	8.44497
253.674	17.21435
253.893	8.05464
254.112	10.43961
254.331	16.51431
254.551	12.82862
254.77	6.73832
254.989	22.38055
255.208	17.49487
255.427	22.92109
255.646	19.55723
255.865	32.13585
256.084	12.98454
256.303	15.89269
256.522	20.05265
256.741	4.58228
256.96	6.46179
257.179	11.13281
257.397	16.16265
257.616	8.24693
257.835	9.33301
258.054	20.7929
258.273	13.30207
258.492	16.14558
258.711	9.07561
258.93	3.96025
259.148	5.6393
259.367	5.51516
259.586	7.15147
259.805	3.325
260.023	6.56381
260.242	5.16249
260.461	3.65002
260.68	2.05244
260.898	6.03665
261.117	1.99115
261.336	1.3058
261.554	5.20144
261.773	5.06409
261.992	0.78049
262.21	4.94071
262.429	6.47384
262.648	10.54137
262.866	11.78097
263.085	7.88419
263.303	6.50522
263.522	13.04635
263.74	12.85069
263.959	20.59158
264.178	11.10998
264.396	10.70921
264.615	7.28762
264.833	17.33417
265.051	14.44029
265.27	13.6065
265.488	14.9975
265.707	9.38658
265.925	16.08453
266.144	6.37369
266.362	8.97214
266.58	8.7768
266.799	6.55674
267.017	8.30404
267.235	7.6137
267.454	4.81708
267.672	2.97394
267.89	6.21472
268.109	6.22286
268.327	6.19623
268.545	1.8984
268.763	5.30979
268.982	2.48037
269.2	7.26026
269.418	4.35194
269.636	3.10233
269.854	5.80844
270.073	4.94086
270.291	2.23319
270.509	2.82835
270.727	6.0991
270.945	10.05441
271.163	10.04655
271.381	2.20109
271.599	4.01415
271.817	7.09746
272.036	2.53256
272.254	4.57872
272.472	3.56816
272.69	3.62072
272.908	3.52701
273.126	5.91735
273.344	7.22635
273.562	2.89949
273.779	3.68276
273.997	5.14393
274.215	6.32743
274.433	4.02596
274.651	6.23292
274.869	7.05563
275.087	3.64207
275.305	5.62757
275.523	3.48246
275.74	4.49509
275.958	7.64982
276.176	10.7702
276.394	3.59676
276.612	4.75225
276.829	4.63923
277.047	3.6691
277.265	4.42135
277.483	4.94203
277.7	6.15889
277.918	4.91103
278.136	8.40295
278.353	4.17481
278.571	2.49569
278.789	6.96753
279.006	1.44727
279.224	4.44382
279.442	7.07514
279.659	4.84187
279.877	3.75736
280.094	8.05996
280.312	1.59208
280.529	4.53689
280.747	1.56619
280.964	3.33501
281.182	8.54006
281.399	3.74952
281.617	5.5458
281.834	3.57128
282.052	3.24153
282.269	4.23364
282.487	3.43802
282.704	3.03962
282.921	3.1052
283.139	4.45623
283.356	5.72087
283.574	5.02069
283.791	2.68205
284.008	7.31834
284.226	3.89726
284.443	4.41256
284.66	5.59647
284.877	4.57417
285.095	3.03906
285.312	2.03793
285.529	1.42925
285.746	1.06621
285.964	2.67134
286.181	1.73463
286.398	2.72255
286.615	3.71518
286.832	3.67026
287.05	1.16571
287.267	2.52504
287.484	2.7174
287.701	3.9184
287.918	3.61365
288.135	3.69765
288.352	1.68018
288.569	1.9616
288.786	3.42007
289.003	2.33643
289.22	3.81168
289.437	2.49389
289.654	4.14012
289.871	4.17187
290.088	4.16825
290.305	3.16655
290.522	2.40421
290.739	3.14251
290.956	4.29652
291.173	5.13938
291.39	4.94741
291.607	3.30385
291.824	2.44851
292.04	1.59065
292.257	4.1802
292.474	4.44653
292.691	2.82965
292.908	1.47827
293.125	2.59814
293.341	1.33645
293.558	7.06527
293.775	2.68973
293.992	2.92411
294.208	1.28037
294.425	1.61304
294.642	2.57845
294.858	4.40125
295.075	1.03229
295.292	2.79178
295.508	3.2669
295.725	5.35727
295.942	2.39957
296.158	1.62318
296.375	2.89606
296.591	2.28175
296.808	2.34389
297.024	2.70526
297.241	3.10007
297.458	3.21605
297.674	0.25419
297.891	2.57256
298.107	1.91259
298.323	1.55217
298.54	3.8712
298.756	1.77298
298.973	0.93726
299.189	3.92973
299.406	1.71477
299.622	4.12871
299.838	3.8795
300.055	3.5753
300.271	0.82263
300.487	1.44212
300.704	1.67937
300.92	1.14423
301.136	5.48318
301.353	3.83537
301.569	2.5628
301.785	3.10895
302.001	3.76852
302.218	3.34402
302.434	3.05308
302.65	1.09541
302.866	2.15711
303.083	5.34615
303.299	4.92772
303.515	2.86434
303.731	2.89019
303.947	1.16341
304.163	1.77917
304.379	3.16409
304.595	3.35277
304.812	2.0788
305.028	1.76371
305.244	2.34881
305.46	3.53835
305.676	3.77317
305.892	4.5416
306.108	2.72987
306.324	2.3076
306.54	4.9933
306.756	3.74959
306.972	3.8225
307.187	2.48558
307.403	4.72235
307.619	1.96003
307.835	4.0158
308.051	4.75471
308.267	1.06117
308.483	4.00755
308.699	3.5477
308.914	2.82902
309.13	2.73761
309.346	0.74994
309.562	1.41912
309.778	0.89716
309.993	3.45878
310.209	2.58515
310.425	0.97153
310.641	2.24598
310.856	1.30688
311.072	1.23795
311.288	2.41122
311.503	2.88663
311.719	0.63334
311.935	0.40527
312.15	3.00336
312.366	2.74515
312.581	3.36164
312.797	2.78978
313.013	3.40662
313.228	2.27035
313.444	2.66524
313.659	1.98835
313.875	3.27056
314.09	2.56882
314.306	4.29706
314.521	3.67879
314.737	3.47059
314.952	3.26792
315.168	2.4913
315.383	3.35209
315.599	2.29759
315.814	2.23252
316.029	3.49095
316.245	1.15292
316.46	1.11063
316.675	4.31241
316.891	5.10986
317.106	6.2195
317.321	3.90971
317.537	3.43419
317.752	3.87819
317.967	3.90022
318.183	1.7843
318.398	2.51595
318.613	3.96462
318.828	4.53086
319.043	3.74183
319.259	2.29504
319.474	3.28945
319.689	4.17756
319.904	0.62544
320.119	3.92203
320.334	3.10819
320.549	2.6103
320.765	4.23691
320.98	2.91938
321.195	4.04832
321.41	2.64643
321.625	3.63619
321.84	5.15023
322.055	5.17192
322.27	1.79797
322.485	1.27418
322.7	3.08196
322.915	4.3697
323.13	1.74684
323.345	4.67162
323.56	3.19391
323.775	3.8939
323.989	3.2719
324.204	2.85303
324.419	3.84339
324.634	1.30135
324.849	2.68673
325.064	5.84183
325.279	4.35362
325.493	3.59398
325.708	4.06498
325.923	1.94786
326.138	1.84716
326.352	4.83538
326.567	3.73221
326.782	2.41611
326.997	2.0121
327.211	3.36852
327.426	3.44566
327.641	2.5102
327.855	1.16691
328.07	3.44403
328.285	5.03751
328.499	2.46443
328.714	3.5919
328.928	3.84201
329.143	3.26127
329.358	3.92983
329.572	4.15035
329.787	4.77802
330.001	5.94826
330.216	1.10543
330.43	4.9216
330.645	5.08613
330.859	3.79329
331.074	1.89239
331.288	3.30682
331.503	4.68729
331.717	1.53131
331.931	2.98514
332.146	3.16744
332.36	5.3671
332.575	3.46618
332.789	2.97751
333.003	3.06572
333.218	3.84239
333.432	2.62493
333.646	3.92546
333.86	4.5592
334.075	5.11298
334.289	2.67017
334.503	2.03166
334.717	3.64857
334.932	3.51911
335.146	4.6972
335.36	2.45673
335.574	4.01366
335.788	3.6401
336.003	4.54406
336.217	3.99928
336.431	3.55477
336.645	2.02163
336.859	1.48459
337.073	2.52716
337.287	3.18629
337.501	1.73011
337.715	3.31558
337.929	3.88021
338.143	1.63192
338.357	2.80782
338.571	1.88937
338.785	3.56146
338.999	2.51553
339.213	2.49759
339.427	1.04981
339.641	4.40401
339.855	2.68413
340.069	2.24636
340.283	4.3307
340.497	4.97021
340.711	3.61734
340.924	2.71579
341.138	1.63196
341.352	1.27021
341.566	3.18992
341.78	0.98976
341.993	1.91786
342.207	1.64659
342.421	3.28915
342.635	3.05423
342.848	2.1564
343.062	0.17047
343.276	2.09009
343.49	5.61505
343.703	2.12733
343.917	3.77217
344.131	3.87071
344.344	2.05662
344.558	2.2512
344.771	1.74683
344.985	4.37132
345.199	4.71125
345.412	3.10589
345.626	3.23038
345.839	0.9602
346.053	1.54261
346.266	1.69098
346.48	3.73394
346.693	3.14295
346.907	3.38331
347.12	1.83838
347.334	3.07886
347.547	3.16983
347.76	2.69272
347.974	4.16169
348.187	3.15179
348.401	2.45553
348.614	2.09824
348.827	2.8125
349.041	3.47232
349.254	0.96111
349.467	2.31856
349.681	1.44105
349.894	2.10372
350.107	4.25693
350.32	4.59052
350.534	0.95545
350.747	2.38857
350.96	1.83035
351.173	2.13944
351.386	2.5923
351.6	2.26938
351.813	2.18482
352.026	2.63951
352.239	1.39074
352.452	2.24717
352.665	3.60087
352.878	2.3689
353.092	5.39455
353.305	3.3989
353.518	3.02126
353.731	1.6912
353.944	4.19857
354.157	1.76543
354.37	1.91811
354.583	1.46545
354.796	1.28938
355.009	3.89667
355.222	2.62769
355.435	2.6896
355.647	4.02363
355.86	1.63947
356.073	2.56666
356.286	2.03685
356.499	3.61164
356.712	3.03749
356.925	3.09203
357.138	3.74932
357.35	1.54539
357.563	2.0513
357.776	2.80419
357.989	2.5342
358.201	3.15622
358.414	2.7717
358.627	4.08572
358.84	2.50139
359.052	1.47589
359.265	1.68148
359.478	3.6225
359.69	-0.06104
359.903	3.43485
360.116	3.6685
360.328	0.91324
360.541	3.57746
360.753	1.77387
360.966	2.19068
361.179	2.23306
361.391	2.01357
361.604	1.47791
361.816	2.00092
362.029	2.02562
362.241	1.68993
362.454	2.15295
362.666	1.66119
362.879	2.83872
363.091	2.28514
363.304	1.91199
363.516	2.53402
363.728	1.46346
363.941	2.94894
364.153	2.32128
364.366	0.63156
364.578	1.50948
364.79	3.00007
365.003	2.52224
365.215	2.12145
365.427	3.21321
365.639	3.72874
365.852	2.84413
366.064	4.6276
366.276	2.10523
366.488	3.01524
366.701	2.26948
366.913	2.28256
367.125	2.15915
367.337	1.96054
367.549	2.02012
367.762	2.48394
367.974	2.56946
368.186	2.16141
368.398	3.76914
368.61	3.03229
368.822	3.17485
369.034	2.42385
369.246	3.53213
369.458	5.27827
369.67	1.74091
369.882	4.50675
370.094	0.54442
370.306	4.09802
370.518	2.39528
370.73	1.82507
370.942	1.9132
371.154	2.56752
371.366	2.26085
371.578	3.18315
371.79	2.10791
372.002	3.68364
372.214	4.73463
372.425	2.7139
372.637	4.17599
372.849	2.96275
373.061	0.61441
373.273	3.31095
373.484	3.15751
373.696	3.79349
373.908	0.84004
374.12	3.79257
374.331	3.53973
374.543	2.09568
374.755	1.63886
374.967	2.89383
375.178	3.92601
375.39	2.85302
375.602	2.96343
375.813	1.5528
376.025	1.79529
376.236	3.09859
376.448	3.10655
376.66	2.77608
376.871	2.83746
377.083	4.0966
377.294	4.56967
377.506	2.63495
377.717	4.37252
377.929	3.33624
378.14	2.66922
378.352	3.80021
378.563	4.04696
378.775	4.56464
378.986	2.16407
379.197	3.47122
379.409	2.43386
379.62	3.77223
379.832	3.3409
380.043	2.96573
380.254	3.25679
380.466	2.07209
380.677	6.01012
380.888	5.26609
381.1	6.05329
381.311	5.93413
381.522	3.59637
381.733	6.358
381.945	3.17869
382.156	3.26325
382.367	3.16521
382.578	6.27185
382.789	6.29166
383.001	2.96584
383.212	5.00123
383.423	5.38582
383.634	4.55124
383.845	4.25522
384.056	3.15137
384.267	3.74468
384.478	3.68797
384.69	2.46018
384.901	4.26935
385.112	4.0021
385.323	5.47549
385.534	4.51125
385.745	4.37501
385.956	4.17966
386.167	2.91281
386.378	4.43745
386.588	3.37862
386.799	3.21091
387.01	2.82003
387.221	4.97767
387.432	4.41227
387.643	5.93263
387.854	3.80439
388.065	3.73282
388.275	4.14482
388.486	3.82546
388.697	4.47247
388.908	3.83309
389.119	5.36323
389.329	6.00756
389.54	4.25915
389.751	4.98324
389.962	5.58311
390.172	4.58548
390.383	4.29822
390.594	4.01687
390.804	4.00349
391.015	4.07189
391.226	4.92925
391.436	5.4573
391.647	5.33365
391.858	5.37432
392.068	3.44775
392.279	4.10182
392.489	5.20731
392.7	5.72063
392.91	4.39093
393.121	4.32265
393.331	5.61289
393.542	6.20466
393.752	6.03218
393.963	5.67124
394.173	5.80598
394.384	5.88985
394.594	5.54966
394.804	4.54102
395.015	5.27381
395.225	6.19111
395.436	4.89207
395.646	6.10065
395.856	5.23029
396.067	4.38688
396.277	6.78269
396.487	6.02017
396.697	6.36988
396.908	6.75032
397.118	6.3243
397.328	6.05249
397.538	6.81573
397.749	5.43072
397.959	7.0518
398.169	6.65203
398.379	4.87516
398.589	6.5615
398.8	6.63648
399.01	6.62887
399.22	5.99596
399.43	8.32765
399.64	6.47743
399.85	7.29598
400.06	6.86251
400.27	6.09885
400.48	6.48704
400.69	7.85143
400.9	6.40426
401.11	5.85404
401.32	7.59678
401.53	6.55668
401.74	8.2271
401.95	7.3805
402.16	6.68042
402.37	7.63911
402.58	6.75978
402.79	7.94785
403	8
403.209	6.68327
403.419	8.45691
403.629	6.90887
403.839	8.54762
404.049	8.51034
404.258	7.42545
404.468	7.26981
404.678	8.7347
404.888	8.89337
405.097	8.15038
405.307	7.88677
405.517	8.86557
405.727	8.96659
405.936	7.82971
406.146	8.44118
406.356	9.47738
406.565	8.38048
406.775	8.06733
406.984	8.22022
407.194	10.48558
407.404	8.61159
407.613	9.3025
407.823	9.45982
408.032	10.16445
408.242	9.61154
408.451	8.66775
408.661	8.85829
408.87	10.49377
409.08	8.32123
409.289	9.4266
409.499	9.24343
409.708	9.21105
409.918	7.49268
410.127	9.57151
410.336	10.75252
410.546	10.32607
410.755	9.27854
410.964	9.12067
411.174	8.7737
411.383	10.07364
411.592	9.77686
411.802	8.98971
412.011	10.39203
412.22	9.78149
412.429	10.74475
412.639	11.10489
412.848	11.00684
413.057	11.50731
413.266	10.81205
413.475	10.28448
413.685	10.79648
413.894	11.19875
414.103	11.09917
414.312	10.84153
414.521	10.03634
414.73	10.54976
414.939	12.23521
415.148	11.05707
415.357	10.97955
415.566	10.62706
415.776	10.72751
415.985	10.64306
416.194	11.85707
416.403	12.89869
416.611	10.25814
416.82	10.81973
417.029	11.67632
417.238	11.06928
417.447	10.90959
417.656	11.552
417.865	11.14966
418.074	11.55704
418.283	11.8117
418.492	12.72052
418.7	12.59332
418.909	13.57868
419.118	12.2914
419.327	12.60643
419.536	12.44382
419.744	12.38782
419.953	13.81716
420.162	14.1415
420.371	13.19728
420.579	14.20632
420.788	14.92931
420.997	15.48011
421.205	15.60656
421.414	15.34467
421.623	15.60721
421.831	14.92563
422.04	15.63163
422.249	14.42942
422.457	14.88848
422.666	13.99406
422.874	15.14132
423.083	15.24559
423.291	15.27222
423.5	15.53174
423.708	15.84224
423.917	16.49572
424.125	15.65314
424.334	15.75626
424.542	17.67379
424.751	16.86712
424.959	16.34342
425.167	16.61048
425.376	16.44477
425.584	14.98449
