Data from WindowProjectSample_Transmission__46__00046__02924734502867089.txt Node

Date: Mon May 05 18:02:55 EDT 2025
User: jessi
Spectrometer: SR400872
Trigger mode: 0
Integration Time (sec): 5.000010E-1
Scans to average: 20
Electric dark correction enabled: true
Nonlinearity correction enabled: true
Boxcar width: 0
XAxis mode: Wavelengths
Number of Pixels in Spectrum: 3648
>>>>>Begin Spectral Data<<<<<
184.909	20901.17136
185.132	-5277.77199
185.355	-3233.80853
185.578	-18191.95819
185.801	1570.34397
186.024	10259.05588
186.247	-1978.2775
186.47	1281.22888
186.693	260.88379
186.916	274.53194
187.139	-3775.73421
187.362	3613.48799
187.585	4203.20525
187.808	3745.81912
188.031	80.26553
188.254	-56363.7537
188.476	-765.97252
188.699	6648.66461
188.922	632.82845
189.145	-15786.415
189.368	-725.80066
189.591	-1764.73336
189.813	3147.75645
190.036	-56000.29873
190.259	-880.80229
190.482	-4743.23696
190.705	7087.63353
190.927	-2626.85356
191.15	13583.34825
191.373	3494.34888
191.595	-9270.34603
191.818	-4138.82241
192.041	-7205.55105
192.263	-3676.6705
192.486	-894.41301
192.709	-3958.15252
192.931	8125.13096
193.154	-29515.96734
193.377	-2886.06308
193.599	-2636.01487
193.822	-9613.19393
194.044	-1975.71915
194.267	1234.88406
194.489	230.37684
194.712	-44019.14051
194.934	-32021.62544
195.157	1231.3244
195.379	1507.90033
195.602	-7248.57173
195.824	-1428.74216
196.047	-8891.60075
196.269	2872.51982
196.492	-6714.20477
196.714	29555.26531
196.936	-8864.8264
197.159	-1301.9881
197.381	1293.52579
197.604	465.43001
197.826	12017.10111
198.048	-11642.63538
198.271	-2802.75159
198.493	7992.8356
198.715	2342.8534
198.938	-465.64643
199.16	7592.17771
199.382	-103495.56278
199.604	2778.33469
199.827	-1070.22762
200.049	-2988.89352
200.271	14513.78431
200.493	1237.44553
200.715	-39013.37312
200.938	-6295.84092
201.16	-4214.96696
201.382	23655.63211
201.604	2440.18263
201.826	2312.92725
202.048	-2077.82768
202.27	-2016.91122
202.492	-36846.98799
202.715	2877.59012
202.937	-4630.23926
203.159	-6595.36776
203.381	1547.26372
203.603	6891.89237
203.825	6564.6065
204.047	2395.96584
204.269	-2765.79139
204.491	2231.54762
204.713	6101.03835
204.935	-506708.92567
205.156	1209.94229
205.378	-3110.74361
205.6	1678.31277
205.822	161210.75657
206.044	-1097.97079
206.266	1637.89716
206.488	4910.51616
206.71	-5501.67856
206.932	1087.99053
207.153	13028.38457
207.375	-7107.34056
207.597	-39716.45737
207.819	-3008.75574
208.041	2525.92227
208.262	517.69452
208.484	765.32976
208.706	-847.77213
208.927	-935.63925
209.149	602.93721
209.371	-2923.9639
209.593	-201.45079
209.814	-900.10149
210.036	752.60796
210.258	-688.86504
210.479	1653.91905
210.701	1712.831
210.922	3412.58498
211.144	-3926.16993
211.366	2116.80253
211.587	5874.47228
211.809	-8268.36373
212.03	2554.85641
212.252	494.9201
212.473	2233.79821
212.695	-6613.17956
212.916	3050.20625
213.138	-740.62638
213.359	3868.03991
213.581	5473.22785
213.802	-756.75719
214.024	1181.62778
214.245	2428.84825
214.466	3547.08309
214.688	-3126.22957
214.909	-1306.55885
215.131	-1828.57547
215.352	-3385.24752
215.573	15170.64321
215.795	5395.05513
216.016	5528.24906
216.237	812.87338
216.459	3673.73818
216.68	1942.87378
216.901	5193.43563
217.122	-3109.43296
217.344	-12606.17818
217.565	3612.61188
217.786	9080.76941
218.007	17030.71297
218.228	-789.34084
218.45	6280.48081
218.671	796.49171
218.892	39800.40615
219.113	1513.04673
219.334	-481.67152
219.555	9353.94105
219.776	3231.1721
219.997	21983.89516
220.219	2849.77574
220.44	-10376.51299
220.661	497.67615
220.882	1573.08908
221.103	-1069.02081
221.324	2266.9217
221.545	2386.01722
221.766	-9090.39281
221.987	948.55061
222.208	1650.33759
222.429	4427.13263
222.65	306.33608
222.87	19717.58825
223.091	751.5909
223.312	602.29416
223.533	1380.63221
223.754	1524.18016
223.975	1433.12382
224.196	1946.72657
224.417	1365.68512
224.637	633.5489
224.858	143.43218
225.079	1166.76099
225.3	671.63539
225.521	3757.97431
225.741	477.87578
225.962	513.62981
226.183	147.27708
226.404	693.50369
226.624	469.26909
226.845	687.00883
227.066	417.08561
227.286	268.04763
227.507	127.92624
227.728	128.58734
227.948	242.37145
228.169	74.65443
228.389	87.12671
228.61	50.22212
228.831	63.86314
229.051	3.62131
229.272	40.31279
229.492	58.02387
229.713	14.51636
229.933	38.98632
230.154	33.63905
230.374	55.83412
230.595	39.3081
230.815	24.10763
231.036	41.31896
231.256	-7.221
231.477	69.64094
231.697	40.45335
231.917	41.20537
232.138	58.3212
232.358	110.63587
232.579	103.53272
232.799	20.27453
233.019	107.83559
233.24	115.96166
233.46	38.50927
233.68	64.07923
233.901	45.77233
234.121	26.9789
234.341	13.94316
234.561	-3.14748
234.782	20.59019
235.002	71.71754
235.222	-4.95662
235.442	68.1555
235.662	34.53279
235.883	63.84762
236.103	51.92904
236.323	38.281
236.543	29.2853
236.763	41.7329
236.983	44.88515
237.203	42.57925
237.423	62.14358
237.643	89.75388
237.864	75.69391
238.084	19.25392
238.304	27.19196
238.524	48.09648
238.744	42.10588
238.964	77.5486
239.184	62.75213
239.404	64.95534
239.624	35.05012
239.843	61.58103
240.063	37.13738
240.283	23.31492
240.503	25.15855
240.723	25.70579
240.943	13.75944
241.163	20.61107
241.383	14.05242
241.603	7.51211
241.822	9.11336
242.042	6.6506
242.262	8.3965
242.482	10.19123
242.702	10.94597
242.921	2.74805
243.141	6.84341
243.361	6.45149
243.581	9.32061
243.8	7.82966
244.02	5.38683
244.24	9.54501
244.459	9.5372
244.679	17.88644
244.899	11.69904
245.118	13.41618
245.338	12.19356
245.558	13.51997
245.777	8.31919
245.997	10.64628
246.216	10.5611
246.436	6.67771
246.655	4.8569
246.875	3.21407
247.094	6.41321
247.314	2.17292
247.533	3.60413
247.753	4.5022
247.972	3.57505
248.192	1.38673
248.411	1.95176
248.631	3.70942
248.85	4.77912
249.07	3.78871
249.289	6.14139
249.508	5.36129
249.728	7.57984
249.947	7.46307
250.166	9.65366
250.386	4.6595
250.605	7.11966
250.824	11.13694
251.044	8.02308
251.263	29.32553
251.482	15.26987
251.701	12.20865
251.921	0.18594
252.14	3.56186
252.359	4.37769
252.578	10.70189
252.798	3.52801
253.017	9.44075
253.236	4.10725
253.455	5.88768
253.674	10.56511
253.893	5.04625
254.112	7.58301
254.331	11.83765
254.551	9.25524
254.77	3.62719
254.989	13.74482
255.208	9.74873
255.427	15.44769
255.646	12.03185
255.865	22.22326
256.084	8.79569
256.303	11.02746
256.522	13.86299
256.741	3.61787
256.96	3.62808
257.179	7.42903
257.397	11.21391
257.616	6.18613
257.835	6.21706
258.054	15.2943
258.273	11.29161
258.492	11.67019
258.711	6.90846
258.93	3.43839
259.148	4.90004
259.367	4.69929
259.586	5.94098
259.805	2.45825
260.023	5.35472
260.242	3.99661
260.461	3.01183
260.68	1.44851
260.898	4.55719
261.117	1.40988
261.336	0.95157
261.554	3.50525
261.773	3.53141
261.992	0.80018
262.21	3.48675
262.429	3.5639
262.648	7.62065
262.866	8.31161
263.085	6.09229
263.303	4.86989
263.522	9.01531
263.74	8.92455
263.959	16.17017
264.178	7.13998
264.396	6.79333
264.615	4.76824
264.833	11.2361
265.051	8.97671
265.27	11.31677
265.488	11.49888
265.707	6.66826
265.925	11.19556
266.144	4.95084
266.362	5.85108
266.58	5.66799
266.799	5.1721
267.017	6.12986
267.235	5.32122
267.454	3.34554
267.672	2.04142
267.89	4.27486
268.109	4.42812
268.327	4.67639
268.545	0.93614
268.763	4.12614
268.982	1.70268
269.2	4.51409
269.418	3.29742
269.636	1.76454
269.854	5.10345
270.073	3.33812
270.291	2.0989
270.509	1.97224
270.727	4.44533
270.945	7.51995
271.163	7.4847
271.381	1.49685
271.599	3.17086
271.817	5.68641
272.036	1.96164
272.254	3.20167
272.472	2.51516
272.69	2.62211
272.908	2.40561
273.126	4.61005
273.344	5.54298
273.562	1.93726
273.779	2.63435
273.997	4.03803
274.215	4.23774
274.433	3.0185
274.651	4.44054
274.869	4.73553
275.087	3.12694
275.305	4.23038
275.523	2.59721
275.74	2.95521
275.958	5.68006
276.176	8.23304
276.394	2.71043
276.612	3.47692
276.829	3.31161
277.047	2.68674
277.265	3.13654
277.483	3.5221
277.7	4.52415
277.918	3.64501
278.136	6.52382
278.353	3.2409
278.571	2.01399
278.789	4.58591
279.006	1.01546
279.224	3.02047
279.442	5.37017
279.659	3.70532
279.877	2.35889
280.094	6.11729
280.312	0.99535
280.529	3.41418
280.747	0.9039
280.964	2.61036
281.182	6.21305
281.399	2.9077
281.617	4.19863
281.834	2.62253
282.052	1.90079
282.269	3.25535
282.487	2.56152
282.704	1.98913
282.921	2.3577
283.139	3.54244
283.356	4.08539
283.574	3.9788
283.791	2.01495
284.008	5.77494
284.226	3.00785
284.443	3.37407
284.66	4.51233
284.877	3.75804
285.095	2.20553
285.312	1.73188
285.529	0.97815
285.746	0.86139
285.964	2.04669
286.181	1.41864
286.398	2.00853
286.615	2.78148
286.832	2.61951
287.05	0.53939
287.267	1.86931
287.484	1.91823
287.701	2.75315
287.918	2.64056
288.135	2.86746
288.352	1.36902
288.569	1.43203
288.786	2.40954
289.003	2.12426
289.22	3.03624
289.437	1.66204
289.654	2.9687
289.871	3.06615
290.088	3.00932
290.305	2.25236
290.522	1.91007
290.739	2.09589
290.956	3.30284
291.173	3.6537
291.39	3.5002
291.607	2.53621
291.824	1.7218
292.04	1.27668
292.257	3.03267
292.474	3.44415
292.691	2.0944
292.908	1.00281
293.125	1.72424
293.341	1.12795
293.558	5.17242
293.775	1.93554
293.992	2.25254
294.208	0.90451
294.425	1.31522
294.642	2.01136
294.858	2.37447
295.075	0.70782
295.292	2.0722
295.508	2.403
295.725	4.07312
295.942	1.68221
296.158	1.18328
296.375	2.04271
296.591	1.51422
296.808	1.80577
297.024	1.98771
297.241	2.26704
297.458	2.4771
297.674	0.14193
297.891	1.82218
298.107	1.50865
298.323	1.12659
298.54	3.13935
298.756	1.34691
298.973	0.6251
299.189	3.25304
299.406	1.18356
299.622	2.88187
299.838	2.70815
300.055	2.77578
300.271	0.6268
300.487	1.00098
300.704	1.2247
300.92	0.78965
301.136	4.29051
301.353	2.67847
301.569	1.88153
301.785	2.20157
302.001	2.77943
302.218	2.24066
302.434	2.22256
302.65	0.73534
302.866	1.61674
303.083	3.95256
303.299	3.76923
303.515	1.93793
303.731	2.03654
303.947	0.61844
304.163	1.25909
304.379	2.14773
304.595	2.51432
304.812	1.29936
305.028	1.25138
305.244	1.7533
305.46	2.64174
305.676	2.68325
305.892	3.14341
306.108	2.25012
306.324	1.54472
306.54	3.77307
306.756	2.61194
306.972	2.42976
307.187	1.6777
307.403	3.49292
307.619	1.54942
307.835	3.14825
308.051	3.4424
308.267	1.0926
308.483	2.88585
308.699	2.49383
308.914	1.9464
309.13	1.85129
309.346	0.58783
309.562	0.94983
309.778	0.76064
309.993	2.59446
310.209	1.91919
310.425	0.97742
310.641	1.72692
310.856	0.99218
311.072	0.94901
311.288	1.86672
311.503	2.00954
311.719	0.34233
311.935	0.16357
312.15	2.27949
312.366	1.79571
312.581	2.29289
312.797	1.84081
313.013	2.54809
313.228	1.34396
313.444	1.85998
313.659	1.39264
313.875	2.38555
314.09	1.74276
314.306	3.23865
314.521	2.73597
314.737	2.73474
314.952	2.03719
315.168	1.83934
315.383	2.34021
315.599	1.76679
315.814	1.6509
316.029	2.58991
316.245	0.78306
316.46	0.67339
316.675	3.10932
316.891	3.56944
317.106	4.61929
317.321	2.33382
317.537	2.55673
317.752	2.71763
317.967	2.68782
318.183	1.18342
318.398	1.59826
318.613	2.75788
318.828	3.1972
319.043	2.69632
319.259	1.71024
319.474	2.1025
319.689	3.09346
319.904	0.58101
320.119	2.53935
320.334	2.31565
320.549	1.63835
320.765	2.97178
320.98	2.21906
321.195	2.63583
321.41	1.95487
321.625	2.79037
321.84	3.80404
322.055	3.77537
322.27	1.46041
322.485	1.04376
322.7	2.33061
322.915	2.88377
323.13	1.21095
323.345	3.31708
323.56	2.9293
323.775	2.61347
323.989	2.24494
324.204	2.27736
324.419	3.06364
324.634	0.98508
324.849	1.75686
325.064	5.10385
325.279	2.87529
325.493	2.42873
325.708	2.90984
325.923	1.28982
326.138	1.44314
326.352	3.60053
326.567	2.87714
326.782	1.52198
326.997	1.41485
327.211	2.57082
327.426	2.31212
327.641	1.56222
327.855	0.66572
328.07	2.34131
328.285	3.58173
328.499	1.51265
328.714	2.33048
328.928	2.74953
329.143	1.87869
329.358	3.01805
329.572	3.01378
329.787	3.16753
330.001	4.25912
330.216	1.03253
330.43	3.71048
330.645	3.54675
330.859	2.78364
331.074	1.4156
331.288	2.22226
331.503	3.05514
331.717	1.20465
331.931	2.17674
332.146	2.1042
332.36	3.67786
332.575	2.33911
332.789	2.36146
333.003	2.16623
333.218	2.51901
333.432	1.4452
333.646	2.73955
333.86	3.59526
334.075	3.49408
334.289	1.56477
334.503	1.24005
334.717	2.42148
334.932	2.49399
335.146	3.27997
335.36	1.79465
335.574	2.68876
335.788	2.6185
336.003	3.08794
336.217	2.58673
336.431	2.57058
336.645	1.50857
336.859	1.0133
337.073	1.79644
337.287	2.2158
337.501	1.18346
337.715	2.18396
337.929	2.8605
338.143	1.01102
338.357	2.02333
338.571	1.23193
338.785	2.37359
338.999	1.60876
339.213	1.52371
339.427	0.70583
339.641	3.2633
339.855	1.84847
340.069	1.51847
340.283	2.94352
340.497	3.76022
340.711	2.28778
340.924	1.79515
341.138	1.02011
341.352	0.85204
341.566	2.20412
341.78	0.64321
341.993	1.66166
342.207	1.11643
342.421	2.18485
342.635	1.9195
342.848	1.61231
343.062	0.30975
343.276	1.32727
343.49	3.75731
343.703	1.34815
343.917	2.8033
344.131	2.77609
344.344	1.27606
344.558	1.61209
344.771	1.08139
344.985	3.39171
345.199	3.32182
345.412	2.19241
345.626	2.20563
345.839	0.57425
346.053	0.98543
346.266	1.09592
346.48	2.4583
346.693	2.25859
346.907	2.17163
347.12	1.0782
347.334	2.26067
347.547	2.15324
347.76	1.49023
347.974	2.9784
348.187	2.12221
348.401	1.57565
348.614	1.44169
348.827	1.59023
349.041	2.37063
349.254	0.53821
349.467	1.72857
349.681	0.89268
349.894	1.39959
350.107	2.89666
350.32	3.2485
350.534	0.61906
350.747	1.47853
350.96	1.17785
351.173	1.31169
351.386	1.65528
351.6	1.46716
351.813	1.34191
352.026	1.6672
352.239	0.70328
352.452	1.65587
352.665	2.63915
352.878	1.85657
353.092	3.58342
353.305	2.49267
353.518	2.06495
353.731	1.22006
353.944	2.83393
354.157	1.43321
354.37	1.04952
354.583	1.14415
354.796	0.41672
355.009	2.65371
355.222	2.04601
355.435	1.79982
355.647	2.46377
355.86	1.05483
356.073	1.72636
356.286	1.43509
356.499	2.30325
356.712	2.01874
356.925	2.22429
357.138	2.41818
357.35	0.98727
357.563	1.45271
357.776	1.73088
357.989	1.42792
358.201	1.99513
358.414	1.81116
358.627	2.74734
358.84	1.50084
359.052	0.78697
359.265	1.03259
359.478	2.54723
359.69	-0.16923
359.903	2.2605
360.116	2.42896
360.328	0.46493
360.541	2.36862
360.753	0.85449
360.966	1.23398
361.179	1.30438
361.391	1.21987
361.604	0.91811
361.816	1.26003
362.029	1.11056
362.241	0.9362
362.454	1.1711
362.666	0.92258
362.879	1.63725
363.091	1.33188
363.304	0.97496
363.516	1.44743
363.728	0.783
363.941	1.95168
364.153	1.22804
364.366	0.0304
364.578	0.82146
364.79	1.81145
365.003	1.57307
365.215	1.155
365.427	1.91711
365.639	2.32197
365.852	1.65248
366.064	3.36571
366.276	1.3254
366.488	1.9846
366.701	1.304
366.913	1.51517
367.125	1.3831
367.337	0.97122
367.549	1.20949
367.762	1.70729
367.974	1.64336
368.186	1.09308
368.398	2.29716
368.61	2.05535
368.822	2.06537
369.034	1.53888
369.246	2.02457
369.458	3.85561
369.67	0.89819
369.882	3.03914
370.094	0.30706
370.306	2.92485
370.518	1.37584
370.73	1.12588
370.942	1.10095
371.154	1.46466
371.366	1.20294
371.578	1.75865
371.79	1.02543
372.002	2.46708
372.214	3.02903
372.425	1.67601
372.637	2.53682
372.849	1.89171
373.061	0.24286
373.273	1.89595
373.484	1.86569
373.696	2.16771
373.908	0.20264
374.12	2.45531
374.331	1.96888
374.543	1.20179
374.755	0.94404
374.967	1.86535
375.178	2.17992
375.39	1.46342
375.602	1.72433
375.813	0.63814
376.025	0.86634
376.236	1.71732
376.448	1.89205
376.66	1.32734
376.871	1.26116
377.083	2.5831
377.294	2.59159
377.506	1.35289
377.717	2.61027
377.929	1.91071
378.14	1.16387
378.352	1.96598
378.563	1.97534
378.775	2.64849
378.986	1.13326
379.197	1.75897
379.409	1.22313
379.62	2.2325
379.832	2.17024
380.043	1.60533
380.254	1.70511
380.466	1.00082
380.677	3.83794
380.888	3.22263
381.1	3.58323
381.311	3.53875
381.522	1.77477
381.733	3.87392
381.945	1.75256
382.156	1.89327
382.367	1.42283
382.578	3.86179
382.789	3.75545
383.001	1.50878
383.212	2.92302
383.423	2.9797
383.634	2.69262
383.845	2.30869
384.056	1.54115
384.267	1.90061
384.478	1.86193
384.69	1.08477
384.901	2.08301
385.112	2.1482
385.323	2.94181
385.534	2.27042
385.745	2.14449
385.956	2.17777
386.167	1.22531
386.378	2.23588
386.588	1.26663
386.799	1.36596
387.01	0.86456
387.221	2.52251
387.432	1.87063
387.643	3.26478
387.854	1.79831
388.065	1.80256
388.275	1.92246
388.486	1.69292
388.697	1.81536
388.908	1.65112
389.119	2.80455
389.329	3.04072
389.54	2.05229
389.751	2.24837
389.962	2.95649
390.172	2.22886
390.383	1.72063
390.594	1.68184
390.804	1.55303
391.015	1.66736
391.226	2.13493
391.436	2.34131
391.647	2.26296
391.858	2.48612
392.068	0.98537
392.279	1.29274
392.489	2.08743
392.7	2.78691
392.91	1.49925
393.121	1.65179
393.331	2.37579
393.542	2.92494
393.752	2.3211
393.963	2.43187
394.173	2.1995
394.384	2.55866
394.594	2.13506
394.804	1.4394
395.015	2.33029
395.225	2.43469
395.436	1.48348
395.646	2.54475
395.856	1.7096
396.067	1.32338
396.277	2.81686
396.487	2.54849
396.697	2.43297
396.908	2.60717
397.118	2.72326
397.328	2.43369
397.538	2.84347
397.749	1.80332
397.959	2.81992
398.169	2.73228
398.379	1.4591
398.589	2.75236
398.8	2.32812
399.01	2.3181
399.22	2.06023
399.43	3.86764
399.64	2.17478
399.85	2.84064
400.06	2.34865
400.27	1.90999
400.48	2.39676
400.69	3.38585
400.9	2.09597
401.11	1.88062
401.32	2.85247
401.53	2.16046
401.74	3.47193
401.95	2.84025
402.16	1.81775
402.37	2.63837
402.58	2.06027
402.79	2.85457
403	3.10172
403.209	2.10231
403.419	3.15967
403.629	2.04062
403.839	3.01435
404.049	3.04678
404.258	2.15301
404.468	1.96379
404.678	2.64395
404.888	3.09797
405.097	2.02525
405.307	2.44319
405.517	2.90041
405.727	2.65598
405.936	2.31441
406.146	2.74006
406.356	3.42645
406.565	2.54771
406.775	2.24792
406.984	2.275
407.194	3.61777
407.404	2.5267
407.613	2.95082
407.823	3.07663
408.032	3.27687
408.242	3.2605
408.451	2.26211
408.661	2.59172
408.87	3.80139
409.08	2.20838
409.289	2.9619
409.499	2.83042
409.708	2.79167
409.918	1.46316
410.127	2.73635
410.336	3.8324
410.546	3.15184
410.755	2.44135
410.964	2.47721
411.174	2.13142
411.383	2.95718
411.592	3.03639
411.802	2.14698
412.011	3.20099
412.22	2.63301
412.429	3.86238
412.639	3.67567
412.848	3.36996
413.057	3.65685
413.266	3.65911
413.475	2.85469
413.685	3.34141
413.894	3.39184
414.103	3.63111
414.312	3.44095
414.521	2.75754
414.73	2.8458
414.939	4.20885
415.148	3.26238
415.357	3.11944
415.566	2.69393
415.776	2.70483
415.985	2.65046
416.194	3.47165
416.403	4.05629
416.611	2.20343
416.82	2.65314
417.029	3.03195
417.238	2.56641
417.447	2.51718
417.656	2.75155
417.865	2.56172
418.074	2.79486
418.283	2.96428
418.492	3.42633
418.7	3.27046
418.909	3.96568
419.118	3.21712
419.327	3.462
419.536	3.30414
419.744	3.02361
419.953	4.10764
420.162	4.08793
420.371	3.31223
420.579	3.38029
420.788	4.21048
420.997	4.25341
421.205	4.3831
421.414	4.13542
421.623	4.14627
421.831	3.81408
422.04	4.35933
422.249	3.64182
422.457	4.14023
422.666	3.54441
422.874	4.4256
423.083	4.38509
423.291	4.34036
423.5	4.14079
423.708	4.36101
423.917	4.67418
424.125	4.24456
424.334	4.05889
424.542	5.62985
424.751	4.97487
424.959	4.71572
425.167	4.99588
425.376	4.77844
425.584	4.04812
425.793	4.21535
426.001	3.42011
426.209	3.98788
426.418	3.19987
426.626	3.18304
426.834	2.97521
427.042	3.3289
