Data from WindowProjectSample_Transmission__60__00060.txt Node

Date: Sat May 03 16:59:52 EDT 2025
User: jessi
Spectrometer: SR400872
Trigger mode: 0
Integration Time (sec): 5.000010E-1
Scans to average: 6
Electric dark correction enabled: true
Nonlinearity correction enabled: true
Boxcar width: 0
XAxis mode: Wavelengths
Number of Pixels in Spectrum: 3648
>>>>>Begin Spectral Data<<<<<
184.909	172492.98211
185.132	1630.36414
185.355	-2070.1974
185.578	3329.94788
185.801	-633.79258
186.024	6287.63558
186.247	892.40018
186.47	769.16283
186.693	-202.31215
186.916	335.11829
187.139	10641.36891
187.362	3281.49672
187.585	2584.09588
187.808	-1666.94418
188.031	89.27594
188.254	8346.26272
188.476	481.24264
188.699	-4337.59467
188.922	-479.12011
189.145	-4130.61148
189.368	-508.52644
189.591	-953.71904
189.813	-2196.08963
190.036	5000.40421
190.259	3581.59972
190.482	2269.6739
190.705	8519.71685
190.927	-1663.27788
191.15	-1658.96851
191.373	4815.1489
191.595	-1865.78029
191.818	9335.26718
192.041	-249.81602
192.263	-2268.46624
192.486	-884.88665
192.709	9067.69699
192.931	-2624.45313
193.154	-2003.67772
193.377	4518.29996
193.599	5802.88983
193.822	-1909.76145
194.044	-1799.44835
194.267	650.88615
194.489	-48.48113
194.712	2138.07659
194.934	3581.25815
195.157	-7997.20806
195.379	1971.14663
195.602	5252.05445
195.824	5511.5875
196.047	-9452.49441
196.269	-11029.23972
196.492	-1203.42585
196.714	-5278.5946
196.936	4463.87896
197.159	-2263.28636
197.381	-518.7791
197.604	1078.53637
197.826	-3505.74061
198.048	-1387.09496
198.271	-12380.59275
198.493	9948.75349
198.715	-2560.9138
198.938	-951.04478
199.16	-4039.72445
199.382	1785.28873
199.604	-1544.21008
199.827	-1283.41722
200.049	-4621.64863
200.271	2348.01413
200.493	-26983.16612
200.715	4914.39635
200.938	12699.1223
201.16	-218037.97575
201.382	-6096.81492
201.604	-1152.45727
201.826	-6707.97546
202.048	-6644.41563
202.27	-4688.30043
202.492	-3743.66277
202.715	-1352.43421
202.937	-3708.32385
203.159	1145.59246
203.381	-97849.64156
203.603	-985.86515
203.825	-1288.38227
204.047	2279.61439
204.269	-947.2394
204.491	6876.58744
204.713	-8602.42737
204.935	38939.85135
205.156	1942.35909
205.378	-6998.58632
205.6	-1713.57142
205.822	6242.44562
206.044	-272.98161
206.266	-2122.20404
206.488	788.95019
206.71	-504073.59323
206.932	-16398.61398
207.153	11762.43206
207.375	-2196.56047
207.597	15648.15222
207.819	1703.30661
208.041	6407.54185
208.262	624.4332
208.484	-960.33658
208.706	-982.61435
208.927	11352.51605
209.149	-8814.33996
209.371	-2621.80644
209.593	-2153.11124
209.814	-3575.73186
210.036	2258.20709
210.258	-652.2422
210.479	1967.91779
210.701	829.55494
210.922	4149.6444
211.144	-1433.45806
211.366	5778.89637
211.587	-661.45656
211.809	-3749.26588
212.03	-2328.58212
212.252	-478.98559
212.473	2802.90579
212.695	-807.59305
212.916	-915.66599
213.138	638.12135
213.359	-1243.6999
213.581	-3392.05356
213.802	-1251.58477
214.024	10741.47161
214.245	-1004.06073
214.466	-125.98275
214.688	-3691.42114
214.909	-813.91522
215.131	9038.70038
215.352	-1225.97029
215.573	-247358.44955
215.795	4378.09103
216.016	-3873.29999
216.237	-553.8922
216.459	-11350.2509
216.68	-1703.46674
216.901	-1677.3693
217.122	1760.42977
217.344	-8731.38205
217.565	-1678.26292
217.786	23556.35092
218.007	972.18789
218.228	-4344.26955
218.45	-5904.14315
218.671	-1653.96205
218.892	872.27216
219.113	1799.66718
219.334	279.02687
219.555	-6137.13314
219.776	33682.24791
219.997	-6932.23369
220.219	-9393.73043
220.44	-5356.94587
220.661	-1300.50821
220.882	13140.77796
221.103	-766.87843
221.324	2361.61509
221.545	-6341.18443
221.766	-1482.77404
221.987	-451.90615
222.208	1792.5063
222.429	6623.6345
222.65	-181.44037
222.87	-722.79915
223.091	40275.65322
223.312	824.30575
223.533	-1966.10166
223.754	3686.2766
223.975	1680.88506
224.196	-802.41431
224.417	-30790.6954
224.637	-2633.50433
224.858	428.11319
225.079	3652.93379
225.3	1644.75746
225.521	3633.77162
225.741	-2345.23505
225.962	1584.9236
226.183	838.86403
226.404	1914.21438
226.624	1790.96281
226.845	1401.59381
227.066	2536.55929
227.286	643.95815
227.507	405.25291
227.728	381.53487
227.948	530.68853
228.169	128.50853
228.389	127.98514
228.61	54.43014
228.831	88.76129
229.051	9.4112
229.272	48.2051
229.492	63.58335
229.713	21.9842
229.933	47.67541
230.154	40.69995
230.374	68.08147
230.595	57.93211
230.815	37.65176
231.036	53.915
231.256	-12.68354
231.477	118.41772
231.697	62.19126
231.917	69.57268
232.138	83.14645
232.358	181.73927
232.579	182.57713
232.799	32.76534
233.019	159.87318
233.24	242.79668
233.46	69.56907
233.68	112.28585
233.901	97.19175
234.121	49.28322
234.341	15.3269
234.561	-8.09556
234.782	34.35671
235.002	123.1195
235.222	1.76284
235.442	90.67493
235.662	42.77949
235.883	107.86041
236.103	86.56876
236.323	69.96573
236.543	51.16173
236.763	71.56855
236.983	74.51797
237.203	72.98584
237.423	104.87891
237.643	149.35054
237.864	145.82917
238.084	36.15038
238.304	56.52868
238.524	81.5087
238.744	71.41436
238.964	114.40234
239.184	101.43586
239.404	103.88645
239.624	51.3735
239.843	96.2031
240.063	56.0039
240.283	36.59158
240.503	36.59749
240.723	35.1323
240.943	20.08463
241.163	26.47167
241.383	17.90718
241.603	9.1821
241.822	12.56486
242.042	8.82473
242.262	9.71929
242.482	11.20705
242.702	13.91745
242.921	4.34342
243.141	10.46839
243.361	8.51285
243.581	12.55597
243.8	11.17542
244.02	7.20828
244.24	14.04551
244.459	13.80475
244.679	26.17963
244.899	17.31432
245.118	19.81157
245.338	16.80065
245.558	22.38009
245.777	11.96285
245.997	13.06526
246.216	13.89251
246.436	7.606
246.655	5.37208
246.875	4.60771
247.094	7.82604
247.314	2.85336
247.533	4.61694
247.753	5.87803
247.972	4.63325
248.192	1.77795
248.411	2.75833
248.631	4.82936
248.85	7.08493
249.07	5.03027
249.289	8.74036
249.508	6.57858
249.728	10.15973
249.947	11.31868
250.166	12.72352
250.386	6.30046
250.605	9.28846
250.824	15.71751
251.044	10.53944
251.263	36.28819
251.482	19.20076
251.701	16.47634
251.921	0.04814
252.14	6.44742
252.359	6.87752
252.578	14.3244
252.798	5.4881
253.017	12.97644
253.236	7.04166
253.455	8.24674
253.674	16.99716
253.893	8.13624
254.112	12.06109
254.331	17.21185
254.551	13.95048
254.77	8.77252
254.989	21.93454
255.208	18.2796
255.427	21.46588
255.646	20.21018
255.865	33.11138
256.084	12.3066
256.303	15.20899
256.522	20.38165
256.741	4.82952
256.96	5.41113
257.179	14.56139
257.397	16.14308
257.616	8.49818
257.835	8.83297
258.054	21.85777
258.273	12.48692
258.492	15.80132
258.711	8.89531
258.93	4.35673
259.148	5.88118
259.367	5.81894
259.586	7.33242
259.805	3.47587
260.023	6.41443
260.242	5.0171
260.461	3.7456
260.68	2.19569
260.898	5.71385
261.117	2.28483
261.336	1.79365
261.554	5.00711
261.773	5.4184
261.992	1.17527
262.21	4.97384
262.429	6.49358
262.648	10.40064
262.866	11.56456
263.085	7.49972
263.303	7.41586
263.522	12.33552
263.74	12.90794
263.959	21.10979
264.178	10.79562
264.396	10.70801
264.615	7.46269
264.833	16.84412
265.051	14.47302
265.27	14.52476
265.488	15.04869
265.707	9.69226
265.925	15.42742
266.144	6.64651
266.362	9.05976
266.58	8.65372
266.799	6.24272
267.017	8.30518
267.235	7.61478
267.454	4.89235
267.672	3.32375
267.89	6.40291
268.109	6.44619
268.327	6.012
268.545	2.05335
268.763	6.47022
268.982	2.67422
269.2	7.00394
269.418	4.79644
269.636	3.37002
269.854	6.41099
270.073	5.32309
270.291	2.54217
270.509	3.32272
270.727	5.87497
270.945	10.16447
271.163	10.03563
271.381	2.83927
271.599	4.12498
271.817	6.94905
272.036	2.54482
272.254	4.46827
272.472	3.6579
272.69	3.62376
272.908	3.45602
273.126	6.02156
273.344	7.23417
273.562	2.96488
273.779	3.71344
273.997	5.3407
274.215	6.0648
274.433	4.4276
274.651	6.33644
274.869	6.57582
275.087	4.23132
275.305	5.8349
275.523	3.36811
275.74	4.51199
275.958	7.91593
276.176	11.53389
276.394	3.44594
276.612	4.78914
276.829	4.77549
277.047	3.52763
277.265	4.45778
277.483	4.9523
277.7	6.26948
277.918	4.67745
278.136	8.96908
278.353	4.39776
278.571	2.78024
278.789	7.79854
279.006	1.61215
279.224	4.3801
279.442	6.9343
279.659	5.04409
279.877	3.17168
280.094	7.58264
280.312	2.00147
280.529	5.12517
280.747	1.37101
280.964	3.42963
281.182	8.47034
281.399	3.77558
281.617	5.43026
281.834	4.04276
282.052	3.12491
282.269	4.53396
282.487	3.44953
282.704	3.03041
282.921	3.55883
283.139	4.39104
283.356	6.01527
283.574	4.76029
283.791	2.5368
284.008	7.3603
284.226	3.80605
284.443	4.3585
284.66	5.85361
284.877	4.79111
285.095	3.03523
285.312	2.2586
285.529	1.59331
285.746	1.04236
285.964	2.90186
286.181	1.84351
286.398	2.77779
286.615	3.84835
286.832	3.57281
287.05	1.09044
287.267	2.48004
287.484	2.7908
287.701	3.75149
287.918	3.64689
288.135	3.70094
288.352	1.94943
288.569	2.21122
288.786	3.68375
289.003	2.52569
289.22	4.0077
289.437	2.39919
289.654	4.12424
289.871	4.35235
290.088	4.13884
290.305	3.31289
290.522	2.33807
290.739	2.87717
290.956	4.27128
291.173	5.13751
291.39	4.83354
291.607	3.40904
291.824	2.65034
292.04	1.69723
292.257	4.26459
292.474	4.35278
292.691	2.90951
292.908	1.51706
293.125	2.445
293.341	1.65493
293.558	7.39631
293.775	2.75204
293.992	3.05664
294.208	1.45843
294.425	1.80572
294.642	2.72702
294.858	3.92958
295.075	1.07275
295.292	2.71514
295.508	3.47592
295.725	5.39929
295.942	2.94056
296.158	2.64425
296.375	3.86437
296.591	3.11578
296.808	3.75304
297.024	4.3298
297.241	4.64519
297.458	5.1367
297.674	2.55725
297.891	4.6654
298.107	4.90857
298.323	3.75661
298.54	6.71693
298.756	4.59032
298.973	3.84709
299.189	7.21857
299.406	5.25903
299.622	7.16477
299.838	7.60221
300.055	7.03276
300.271	5.38421
300.487	5.13836
300.704	6.33808
300.92	5.67388
301.136	10.31191
301.353	8.13664
301.569	7.48714
301.785	8.12542
302.001	8.68888
302.218	8.40758
302.434	8.74323
302.65	6.65711
302.866	7.52347
303.083	11.22838
303.299	11.68265
303.515	8.8326
303.731	9.92767
303.947	7.56409
304.163	8.66104
304.379	9.66252
304.595	9.91772
304.812	8.45738
305.028	8.41305
305.244	8.87192
305.46	10.19835
305.676	10.70495
305.892	11.42062
306.108	10.42377
306.324	9.28801
306.54	12.37657
306.756	10.33401
306.972	10.3137
307.187	10.47375
307.403	11.33811
307.619	9.31894
307.835	11.66978
308.051	12.21361
308.267	9.25314
308.483	12.98039
308.699	11.485
308.914	11.31761
309.13	10.83661
309.346	9.87926
309.562	10.36589
309.778	10.08481
309.993	11.81329
310.209	12.33066
310.425	10.36779
310.641	12.14544
310.856	11.24857
311.072	10.94151
311.288	11.97398
311.503	12.86218
311.719	10.09997
311.935	10.68905
312.15	13.3546
312.366	12.92301
312.581	12.81229
312.797	12.75041
313.013	13.29205
313.228	11.66004
313.444	11.45344
313.659	11.2021
313.875	12.72261
314.09	12.1521
314.306	12.92273
314.521	13.30053
314.737	12.85429
314.952	12.45465
315.168	12.11613
315.383	12.63361
315.599	11.12769
315.814	11.80838
316.029	12.72169
316.245	11.25498
316.46	9.3465
316.675	13.49472
316.891	14.30712
317.106	15.91881
317.321	12.28915
317.537	13.05177
317.752	13.35808
317.967	13.39222
318.183	11.09228
318.398	11.95897
318.613	13.23148
318.828	14.2166
319.043	12.7809
319.259	11.85692
319.474	12.52205
319.689	13.66268
319.904	10.26699
320.119	14.33352
320.334	12.59797
320.549	12.18231
320.765	13.59875
320.98	13.14745
321.195	12.54071
321.41	12.70167
321.625	12.9631
321.84	14.55053
322.055	14.0185
322.27	11.83539
322.485	10.78104
322.7	13.24652
322.915	13.41396
323.13	12.15106
323.345	15.29344
323.56	14.62681
323.775	14.19383
323.989	14.06234
324.204	13.34713
324.419	14.40919
324.634	11.81
324.849	13.44501
325.064	16.79381
325.279	15.04519
325.493	13.89333
325.708	14.13438
325.923	12.28414
326.138	13.74918
326.352	15.45643
326.567	14.23322
326.782	12.58005
326.997	12.85104
327.211	14.06776
327.426	13.51676
327.641	13.46295
327.855	11.42614
328.07	14.24645
328.285	15.65463
328.499	12.66857
328.714	13.5964
328.928	12.94746
329.143	13.31506
329.358	14.44926
329.572	14.46392
329.787	15.29402
330.001	16.20983
330.216	11.30477
330.43	16.43612
330.645	14.1771
330.859	13.99193
331.074	11.70557
331.288	13.42181
331.503	15.74397
331.717	11.94297
331.931	13.26085
332.146	14.03376
332.36	16.12369
332.575	14.33182
332.789	13.32599
333.003	14.02634
333.218	14.84225
333.432	13.47222
333.646	14.69932
333.86	16.27774
334.075	15.38722
334.289	13.42844
334.503	11.60734
334.717	14.98558
334.932	13.9191
335.146	14.60384
335.36	12.2152
335.574	14.28068
335.788	13.20609
336.003	14.33382
336.217	14.25739
336.431	13.56291
336.645	13.08157
336.859	12.69524
337.073	13.90616
337.287	15.05577
337.501	12.43379
337.715	14.68007
337.929	14.50573
338.143	12.88879
338.357	13.75272
338.571	13.78087
338.785	15.32646
338.999	13.40757
339.213	13.5043
339.427	12.7204
339.641	15.44822
339.855	13.55724
340.069	12.46111
340.283	14.97084
340.497	15.52082
340.711	14.8275
340.924	14.32927
341.138	12.9858
341.352	12.20286
341.566	14.0838
341.78	12.68155
341.993	13.60663
342.207	13.3752
342.421	14.55433
342.635	14.0428
342.848	13.92195
343.062	10.83626
343.276	13.39504
343.49	16.40693
343.703	13.28878
343.917	15.38663
344.131	15.68271
344.344	13.07036
344.558	13.78144
344.771	12.79632
344.985	15.71648
345.199	16.45116
345.412	14.67792
345.626	15.24582
345.839	12.51275
346.053	12.86839
346.266	13.09782
346.48	14.86101
346.693	14.88757
346.907	14.76125
347.12	13.02665
347.334	13.85443
347.547	14.64836
347.76	14.12829
347.974	15.16858
348.187	14.39851
348.401	14.16836
348.614	12.61253
348.827	13.9221
349.041	14.38577
349.254	12.56789
349.467	13.43986
349.681	12.88842
349.894	12.88995
350.107	15.79333
350.32	16.52899
350.534	12.67286
350.747	13.94971
350.96	13.16505
351.173	13.52303
351.386	13.80299
351.6	13.16421
351.813	13.66685
352.026	13.79699
352.239	13.15869
352.452	13.10638
352.665	15.76336
352.878	13.45938
353.092	16.9545
353.305	14.71005
353.518	14.12984
353.731	13.00064
353.944	15.71676
354.157	13.58377
354.37	13.895
354.583	12.55242
354.796	13.1128
355.009	15.26974
355.222	14.67145
355.435	14.45698
355.647	15.97268
355.86	13.58461
356.073	14.78016
356.286	13.95962
356.499	15.78269
356.712	15.64431
356.925	14.95681
357.138	15.73313
357.35	13.7045
357.563	14.11892
357.776	14.99534
357.989	15.02583
358.201	15.75286
358.414	15.30766
358.627	16.3053
358.84	14.72293
359.052	13.57366
359.265	13.64563
359.478	15.85391
359.69	12.30723
359.903	16.0505
360.116	16.33924
360.328	13.67786
360.541	15.91194
360.753	15.0649
360.966	15.02641
361.179	15.40801
361.391	15.07261
361.604	14.94288
361.816	15.11874
362.029	15.1323
362.241	14.78343
362.454	15.3156
362.666	14.58206
362.879	16.1726
363.091	14.78484
363.304	14.93464
363.516	14.73494
363.728	14.15125
363.941	15.65961
364.153	15.15841
364.366	13.23614
364.578	14.17428
364.79	15.50698
365.003	15.38017
365.215	14.27864
365.427	15.63536
365.639	15.86791
365.852	15.16927
366.064	16.78612
366.276	14.57823
366.488	15.10806
366.701	14.70875
366.913	14.60557
367.125	14.54893
367.337	14.3845
367.549	14.39464
367.762	14.67267
367.974	14.69421
368.186	14.714
368.398	15.67134
368.61	15.03388
368.822	15.34461
369.034	14.28675
369.246	15.75404
369.458	17.5886
369.67	14.14036
369.882	16.36467
370.094	12.51012
370.306	16.1629
370.518	14.43089
370.73	14.37546
370.942	14.37887
371.154	14.85748
371.366	15.02133
371.578	15.51133
371.79	14.78964
372.002	16.11422
372.214	17.46027
372.425	14.88978
372.637	16.69712
372.849	15.11738
373.061	12.6471
373.273	15.10782
373.484	15.38778
373.696	15.55489
373.908	12.77788
374.12	15.58482
374.331	15.83846
374.543	13.90245
374.755	14.13079
374.967	15.02464
375.178	16.2417
375.39	14.78916
375.602	15.2816
375.813	13.58222
376.025	14.22867
376.236	15.08701
376.448	15.70698
376.66	15.34246
376.871	15.56861
377.083	16.17621
377.294	17.58249
377.506	14.96555
377.717	16.63449
377.929	15.69442
378.14	15.34473
378.352	15.81484
378.563	16.30387
378.775	16.98512
378.986	14.62815
379.197	15.33787
379.409	14.70577
379.62	16.11158
379.832	15.85276
380.043	15.23715
380.254	15.80696
380.466	13.96592
380.677	18.45093
380.888	17.51438
381.1	18.03118
381.311	17.60967
381.522	15.59663
381.733	18.27396
381.945	15.22217
382.156	15.10654
382.367	15.20294
382.578	18.23896
382.789	18.70038
383.001	15.06101
383.212	17.25223
383.423	17.87691
383.634	16.59011
383.845	16.52399
384.056	15.42939
384.267	15.87437
384.478	15.79569
384.69	14.96522
384.901	16.62468
385.112	16.24898
385.323	17.79992
385.534	16.21517
385.745	16.33432
385.956	16.11567
386.167	15.05613
386.378	16.5933
386.588	15.49618
386.799	15.12098
387.01	15.02435
387.221	16.84987
387.432	16.27254
387.643	17.7469
387.854	15.93379
388.065	15.7508
388.275	15.92659
388.486	15.30327
388.697	16.25336
388.908	15.34597
389.119	16.86445
389.329	17.52891
389.54	16.12171
389.751	16.45638
389.962	17.26972
390.172	16.15742
390.383	16.13611
390.594	15.52876
390.804	15.70969
391.015	15.91984
391.226	16.5285
391.436	17.08107
391.647	16.64985
391.858	17.21933
392.068	15.12196
392.279	15.675
392.489	16.86516
392.7	17.11021
392.91	16.21545
393.121	15.86041
393.331	17.07879
393.542	17.84916
393.752	17.42331
393.963	17.38026
394.173	17.13068
394.384	17.26871
394.594	16.836
394.804	15.67309
395.015	16.69222
395.225	17.10173
395.436	15.84338
395.646	17.18668
395.856	16.48536
396.067	15.24793
396.277	17.3915
396.487	17.37663
396.697	17.03406
396.908	17.70987
397.118	17.24722
397.328	16.78358
397.538	17.91068
397.749	16.51335
397.959	17.55806
398.169	16.99575
398.379	15.51164
398.589	17.32812
398.8	17.48046
399.01	17.16174
399.22	16.64106
399.43	18.79088
399.64	17.03486
399.85	17.51518
400.06	17.25352
400.27	16.25972
400.48	16.94737
400.69	18.06465
400.9	16.74793
401.11	16.02239
401.32	17.69984
401.53	16.68441
401.74	18.5423
401.95	17.53445
402.16	17.09283
402.37	17.72529
402.58	16.76482
402.79	17.74021
403	18.0727
403.209	16.97903
403.419	18.62708
403.629	16.93163
403.839	18.84493
404.049	18.6652
404.258	17.34036
404.468	17.23696
404.678	18.47696
404.888	19.14053
405.097	18.20048
405.307	17.85009
405.517	18.56553
405.727	18.63857
405.936	17.38012
406.146	18.0867
406.356	19.16989
406.565	18.19432
406.775	17.80188
406.984	17.62322
407.194	20.14966
407.404	18.18297
407.613	18.72474
407.823	18.98862
408.032	19.46503
408.242	19.20097
408.451	17.83648
408.661	18.10392
408.87	19.8095
409.08	17.67151
409.289	18.82698
409.499	18.81356
409.708	18.60265
409.918	16.9492
410.127	18.96241
410.336	19.94302
410.546	19.412
410.755	18.41254
410.964	18.43305
411.174	17.80892
411.383	19.2075
411.592	19.02107
411.802	18.35411
412.011	19.22177
412.22	19.02598
412.429	19.80112
412.639	20.34256
412.848	20.22646
413.057	20.70325
413.266	19.79535
413.475	19.20807
413.685	19.84221
413.894	20.02046
414.103	20.12881
414.312	20.15195
414.521	19.16928
414.73	19.94727
414.939	21.1004
415.148	19.84668
415.357	19.89935
415.566	19.83281
415.776	19.75728
415.985	19.94774
416.194	20.74477
416.403	21.84409
416.611	19.37958
416.82	19.83401
417.029	20.82162
417.238	19.95251
417.447	19.99176
417.656	20.64591
417.865	20.10054
418.074	20.74642
418.283	21.00383
418.492	21.7357
418.7	21.6341
418.909	22.5629
419.118	21.18584
419.327	21.8601
419.536	21.46966
419.744	21.5342
419.953	23.30294
