Data from WindowProjectSample_Transmission__71__00071.txt Node

Date: Sat May 03 17:54:11 EDT 2025
User: jessi
Spectrometer: SR400872
Trigger mode: 0
Integration Time (sec): 5.000010E-1
Scans to average: 6
Electric dark correction enabled: true
Nonlinearity correction enabled: true
Boxcar width: 0
XAxis mode: Wavelengths
Number of Pixels in Spectrum: 3648
>>>>>Begin Spectral Data<<<<<
184.909	3219.14988
185.132	3997.50752
185.355	-3992.34266
185.578	3960.10422
185.801	-400.11155
186.024	-4569.02317
186.247	1534.25003
186.47	503.73405
186.693	-103.50389
186.916	4499.4837
187.139	3070.87894
187.362	-1808.32791
187.585	5927.89562
187.808	27919.41649
188.031	135.32932
188.254	-4224.31013
188.476	684.13573
188.699	3417.36831
188.922	-173.92284
189.145	-6961.57776
189.368	-386.80097
189.591	-754.87821
189.813	-3039.16979
190.036	917.56827
190.259	-8475.70122
190.482	1396.50928
190.705	3979.51879
190.927	-1870.23866
191.15	-6818.05367
191.373	6071.34809
191.595	-1160.39607
191.818	1989.80347
192.041	-553.84879
192.263	1901.61877
192.486	-2624.46108
192.709	-22522.83877
192.931	1748.20084
193.154	-3675.71022
193.377	-2249.75465
193.599	4157.61374
193.822	1657.82245
194.044	5523.50108
194.267	780.99924
194.489	105.91864
194.712	2556.24679
194.934	8286.86811
195.157	-23111.73343
195.379	2309.84738
195.602	1661.03643
195.824	1482.84963
196.047	40878.98481
196.269	3238.65263
196.492	-1803.38278
196.714	-1306.47859
196.936	1891.41644
197.159	-11746.84109
197.381	-380.7443
197.604	-4232.61765
197.826	-16740.96996
198.048	10299.92088
198.271	-8526.19
198.493	4548.89124
198.715	3417.39464
198.938	-737.21177
199.16	-18237.11591
199.382	1169.6693
199.604	-1680.73304
199.827	-3398.29308
200.049	2169.35619
200.271	-7036.98549
200.493	-47744.65958
200.715	3544.99011
200.938	-2899.95815
201.16	-2719.73017
201.382	-1624.69354
201.604	-3246.19734
201.826	3366.85402
202.048	3276.36312
202.27	-1057.39868
202.492	-3520.1635
202.715	-1278.62604
202.937	-16657.24843
203.159	2437.19717
203.381	2094.01781
203.603	-2951.69152
203.825	-827.42031
204.047	55332.09548
204.269	-1236.69863
204.491	-1113.09692
204.713	64863.55987
204.935	-3200.84223
205.156	-915.81273
205.378	-4473.4032
205.6	-1211.86688
205.822	2424.7643
206.044	-475.11301
206.266	5930.85394
206.488	943.38877
206.71	3412.33752
206.932	1535.10415
207.153	-1575.70421
207.375	-2672.41374
207.597	3754.19241
207.819	28038.43036
208.041	3961.40659
208.262	-1608.39492
208.484	-1112.57718
208.706	-1510.93165
208.927	3083.4582
209.149	4841.21081
209.371	-5171.19181
209.593	354.5016
209.814	-29807.765
210.036	2523.16277
210.258	-760.72749
210.479	4116.17964
210.701	-3485.58813
210.922	-11116.2098
211.144	-866.68605
211.366	5017.88817
211.587	-2182.61065
211.809	-4864.87652
212.03	-850.69509
212.252	-684.92661
212.473	3342.62538
212.695	-578.46218
212.916	-862.02357
213.138	641.70296
213.359	-1416.90768
213.581	12091.10426
213.802	-2136.99689
214.024	-2423.92909
214.245	-6232.39576
214.466	-399.58526
214.688	-2898.80111
214.909	-19021.94654
215.131	-4464.95179
215.352	-1843.46968
215.573	11257.23127
215.795	1619.43458
216.016	6439.87107
216.237	-482.25236
216.459	6892.56165
216.68	-3226.74967
216.901	-2653.52303
217.122	-2083.36628
217.344	-7155.0213
217.565	-2887.221
217.786	2113.54222
218.007	1553.81685
218.228	-581.3818
218.45	-4279.89855
218.671	1518.01648
218.892	3757.74455
219.113	1568.24654
219.334	114.57333
219.555	-7068.54527
219.776	12171.90677
219.997	4106.54503
220.219	2073.58459
220.44	1144.95012
220.661	1104.0086
220.882	-2700.07296
221.103	-1088.3401
221.324	2424.696
221.545	3060.80088
221.766	-3476.81553
221.987	-440.12178
222.208	-9700.40598
222.429	178780.68
222.65	-364.52204
222.87	-9982.82469
223.091	2468.74252
223.312	-1303.55623
223.533	2232.41744
223.754	2035.03425
223.975	2803.58093
224.196	-5934.6574
224.417	-2709.37566
224.637	8966.9466
224.858	1215.33461
225.079	1364.98816
225.3	1067.10119
225.521	5003.76248
225.741	942.59287
225.962	1150.08948
226.183	-568.07494
226.404	1446.0358
226.624	1125.6532
226.845	1581.91376
227.066	911.31867
227.286	538.03721
227.507	216.32119
227.728	196.30683
227.948	281.14852
228.169	95.2138
228.389	93.85821
228.61	44.38385
228.831	65.05288
229.051	6.8775
229.272	38.35761
229.492	50.86865
229.713	14.18065
229.933	39.73921
230.154	32.19483
230.374	52.86385
230.595	39.7524
230.815	27.87579
231.036	39.82953
231.256	-8.9617
231.477	77.326
231.697	43.66837
231.917	44.4529
232.138	63.42136
232.358	135.96735
232.579	125.7742
232.799	19.31187
233.019	115.87994
233.24	142.89873
233.46	46.46641
233.68	75.47453
233.901	59.12
234.121	31.47084
234.341	12.27982
234.561	1.51744
234.782	26.19546
235.002	79.89357
235.222	-4.50182
235.442	65.94929
235.662	33.66034
235.883	71.02873
236.103	64.80515
236.323	47.94991
236.543	29.32109
236.763	48.07628
236.983	51.85919
237.203	51.81083
237.423	74.41448
237.643	102.39438
237.864	89.19455
238.084	28.52983
238.304	36.27542
238.524	57.90933
238.744	46.89393
238.964	78.02201
239.184	68.44006
239.404	75.47975
239.624	36.76007
239.843	66.18882
240.063	38.87926
240.283	23.95567
240.503	27.79351
240.723	27.10858
240.943	14.46635
241.163	19.97018
241.383	15.88083
241.603	7.10933
241.822	9.31541
242.042	6.60461
242.262	8.45964
242.482	9.46731
242.702	11.21223
242.921	3.26077
243.141	8.25024
243.361	6.61436
243.581	10.56436
243.8	8.46606
244.02	5.67662
244.24	10.69474
244.459	11.05178
244.679	20.10638
244.899	13.86822
245.118	15.59263
245.338	13.16534
245.558	16.65435
245.777	9.03576
245.997	10.4859
246.216	10.69323
246.436	6.14414
246.655	4.56331
246.875	3.17319
247.094	6.63433
247.314	2.24221
247.533	3.40645
247.753	5.06074
247.972	3.73011
248.192	1.40616
248.411	2.42315
248.631	4.05
248.85	5.32324
249.07	3.67082
249.289	6.91206
249.508	5.14593
249.728	7.99197
249.947	9.12475
250.166	9.29014
250.386	5.94148
250.605	7.2316
250.824	11.79615
251.044	8.97341
251.263	27.89205
251.482	14.3132
251.701	12.94801
251.921	0.54189
252.14	4.39201
252.359	5.0864
252.578	10.53789
252.798	3.65594
253.017	9.12171
253.236	5.06302
253.455	6.21092
253.674	12.89813
253.893	5.29082
254.112	9.09793
254.331	11.83785
254.551	11.38719
254.77	4.31674
254.989	16.71118
255.208	12.99354
255.427	17.73424
255.646	15.05644
255.865	24.88856
256.084	9.86949
256.303	11.65526
256.522	15.76139
256.741	3.66622
256.96	4.85247
257.179	9.96275
257.397	11.77119
257.616	6.04271
257.835	7.36111
258.054	16.28718
258.273	10.37932
258.492	12.33778
258.711	6.85786
258.93	3.2411
259.148	4.43528
259.367	4.25767
259.586	5.579
259.805	2.5565
260.023	5.40014
260.242	4.03614
260.461	3.0171
260.68	1.68774
260.898	4.59664
261.117	1.6131
261.336	1.08085
261.554	4.25981
261.773	4.10541
261.992	0.99057
262.21	3.9849
262.429	5.21658
262.648	8.14344
262.866	9.5287
263.085	6.12986
263.303	5.2381
263.522	9.30859
263.74	9.82585
263.959	16.25636
264.178	8.23032
264.396	7.90274
264.615	5.00055
264.833	12.26261
265.051	11.57561
265.27	10.68052
265.488	12.44778
265.707	8.11921
265.925	12.24615
266.144	5.37983
266.362	6.96354
266.58	6.71541
266.799	5.10979
267.017	6.52788
267.235	6.08772
267.454	3.67485
267.672	2.33999
267.89	4.657
268.109	5.16049
268.327	4.79975
268.545	1.56501
268.763	4.75117
268.982	2.04567
269.2	5.7364
269.418	3.56718
269.636	2.80077
269.854	4.69467
270.073	4.27708
270.291	1.49619
270.509	2.14994
270.727	4.98
270.945	7.778
271.163	8.2293
271.381	2.10784
271.599	3.07153
271.817	5.84389
272.036	2.07095
272.254	3.40146
272.472	2.65036
272.69	2.78645
272.908	2.7794
273.126	4.92781
273.344	5.9097
273.562	2.11534
273.779	2.83055
273.997	4.13489
274.215	4.72108
274.433	3.5532
274.651	5.19212
274.869	5.06698
275.087	3.27238
275.305	4.69649
275.523	2.53195
275.74	3.76627
275.958	5.8447
276.176	8.73674
276.394	2.95258
276.612	3.6661
276.829	3.51687
277.047	2.80776
277.265	3.69645
277.483	4.26754
277.7	4.6981
277.918	3.96551
278.136	6.96508
278.353	3.38435
278.571	1.8433
278.789	5.83371
279.006	1.26052
279.224	3.10074
279.442	5.79813
279.659	3.44869
279.877	3.09529
280.094	6.18886
280.312	1.29131
280.529	3.74212
280.747	1.1689
280.964	2.94806
281.182	6.56898
281.399	3.0363
281.617	4.51852
281.834	3.04496
282.052	2.48439
282.269	3.33608
282.487	2.9456
282.704	2.37362
282.921	2.78682
283.139	3.54674
283.356	4.69802
283.574	4.07253
283.791	2.29278
284.008	5.73209
284.226	2.8437
284.443	3.58258
284.66	4.84525
284.877	3.65103
285.095	2.4793
285.312	1.68758
285.529	1.27356
285.746	1.00041
285.964	2.21335
286.181	1.68053
286.398	2.19943
286.615	2.94567
286.832	3.01583
287.05	0.94221
287.267	2.06516
287.484	2.16798
287.701	3.1014
287.918	2.76245
288.135	3.08152
288.352	1.45701
288.569	1.5395
288.786	2.82475
289.003	2.15188
289.22	3.15045
289.437	1.92472
289.654	3.32136
289.871	3.52315
290.088	3.18024
290.305	2.35694
290.522	1.97619
290.739	2.40654
290.956	3.55479
291.173	4.13587
291.39	3.74297
291.607	2.72855
291.824	2.15467
292.04	1.43058
292.257	3.10794
292.474	3.44341
292.691	2.33243
292.908	1.37957
293.125	2.28298
293.341	1.34584
293.558	5.54003
293.775	2.4924
293.992	2.38861
294.208	1.05673
294.425	1.31278
294.642	2.00594
294.858	2.49763
295.075	1.0213
295.292	2.32167
295.508	2.67303
295.725	4.17199
295.942	2.05421
296.158	1.48096
296.375	2.18461
296.591	1.83617
296.808	1.88758
297.024	2.18076
297.241	2.40541
297.458	2.55312
297.674	0.25038
297.891	1.97518
298.107	1.6638
298.323	1.20164
298.54	2.95424
298.756	1.51596
298.973	0.77312
299.189	3.10411
299.406	1.32459
299.622	3.25781
299.838	3.15479
300.055	2.92437
300.271	0.83753
300.487	1.178
300.704	1.43239
300.92	0.99003
301.136	4.36988
301.353	3.00964
301.569	2.16503
301.785	2.50617
302.001	2.94934
302.218	2.71225
302.434	2.52404
302.65	0.90264
302.866	1.87242
303.083	4.28677
303.299	4.2064
303.515	2.21217
303.731	2.18635
303.947	0.92777
304.163	1.47292
304.379	2.47736
304.595	2.70812
304.812	1.53992
305.028	1.08512
305.244	1.92914
305.46	2.80257
305.676	3.24162
305.892	3.64513
306.108	2.29338
306.324	1.83184
306.54	4.1644
306.756	3.01559
306.972	2.71318
307.187	1.98338
307.403	3.81869
307.619	1.5576
307.835	3.19069
308.051	3.69939
308.267	0.74657
308.483	3.27215
308.699	2.5888
308.914	2.19051
309.13	2.00478
309.346	0.63691
309.562	1.09347
309.778	0.81997
309.993	2.81515
310.209	2.06433
310.425	0.99231
310.641	1.81536
310.856	1.10598
311.072	1.13278
311.288	1.97605
311.503	2.22972
311.719	0.35596
311.935	0.39086
312.15	2.40499
312.366	2.09478
312.581	2.58293
312.797	2.22204
313.013	2.78506
313.228	1.72946
313.444	2.00282
313.659	1.5414
313.875	2.50744
314.09	2.13189
314.306	3.23171
314.521	3.12775
314.737	2.7095
314.952	2.46771
315.168	2.16109
315.383	2.68932
315.599	1.82597
315.814	1.99802
316.029	2.87374
316.245	0.95033
316.46	0.77429
316.675	3.48375
316.891	4.20152
317.106	4.99586
317.321	2.96261
317.537	2.86939
317.752	2.96214
317.967	2.95075
318.183	1.54216
318.398	1.89457
318.613	3.10612
318.828	3.73298
319.043	2.90921
319.259	1.61271
319.474	2.58618
319.689	3.49713
319.904	0.52995
320.119	3.10304
320.334	2.61953
320.549	2.03557
320.765	3.27843
320.98	2.50896
321.195	3.30233
321.41	2.16633
321.625	3.02451
321.84	4.28786
322.055	4.25772
322.27	1.51674
322.485	1.04955
322.7	2.41376
322.915	3.64102
323.13	1.34883
323.345	3.72697
323.56	3.0219
323.775	2.88176
323.989	2.81566
324.204	2.30581
324.419	3.13858
324.634	1.1351
324.849	1.99502
325.064	4.65139
325.279	3.35945
325.493	2.96387
325.708	3.2784
325.923	1.46323
326.138	1.46084
326.352	3.79253
326.567	3.13877
326.782	1.77473
326.997	1.50074
327.211	2.64746
327.426	2.60437
327.641	1.99504
327.855	0.71838
328.07	2.79324
328.285	3.77019
328.499	2.00639
328.714	3.01252
328.928	3.06587
329.143	2.34218
329.358	3.22165
329.572	3.25719
329.787	3.69724
330.001	4.74582
330.216	0.94852
330.43	3.96353
330.645	4.12433
330.859	3.12456
331.074	1.55403
331.288	2.55023
331.503	3.70167
331.717	1.10894
331.931	2.16517
332.146	2.43552
332.36	3.79796
332.575	3.01161
332.789	2.45072
333.003	2.1817
333.218	2.79685
333.432	2.0065
333.646	3.04359
333.86	3.86988
334.075	3.92807
334.289	2.03024
334.503	1.43177
334.717	3.2205
334.932	3.08884
335.146	3.65556
335.36	2.02661
335.574	3.00179
335.788	2.75163
336.003	3.6011
336.217	2.98471
336.431	2.88595
336.645	1.7165
336.859	1.16364
337.073	1.98995
337.287	2.43286
337.501	1.2426
337.715	2.60085
337.929	3.05776
338.143	1.26738
338.357	2.22164
338.571	1.22791
338.785	2.6907
338.999	1.82254
339.213	2.0283
339.427	0.90943
339.641	3.31264
339.855	2.10707
340.069	1.80155
340.283	3.13438
340.497	3.96242
340.711	2.79198
340.924	1.86375
341.138	1.21159
341.352	0.9956
341.566	2.44965
341.78	0.77655
341.993	1.78823
342.207	1.19305
342.421	2.48681
342.635	2.37564
342.848	1.76449
343.062	0.34694
343.276	1.73358
343.49	4.24788
343.703	1.50536
343.917	3.00293
344.131	3.26162
344.344	1.52205
344.558	1.72249
344.771	1.4292
344.985	3.35804
345.199	3.7129
345.412	2.30908
345.626	2.49589
345.839	0.68743
346.053	1.29499
346.266	1.20937
346.48	2.92726
346.693	2.32118
346.907	2.81779
347.12	1.40288
347.334	2.58786
347.547	2.58753
347.76	1.8781
347.974	3.35875
348.187	2.46488
348.401	1.92837
348.614	1.77801
348.827	1.82222
349.041	2.76816
349.254	0.76508
349.467	1.78593
349.681	0.9086
349.894	1.71061
350.107	3.26478
350.32	3.48369
350.534	0.62812
350.747	1.67949
350.96	1.44829
351.173	1.59688
351.386	1.831
351.6	1.88056
351.813	1.55185
352.026	2.34227
352.239	1.05609
352.452	1.78916
352.665	2.86145
352.878	1.82173
353.092	4.12686
353.305	2.6321
353.518	2.29173
353.731	1.4078
353.944	3.32543
354.157	1.47631
354.37	1.22099
354.583	0.982
354.796	0.59523
355.009	3.0531
355.222	1.99858
355.435	2.21681
355.647	3.04227
355.86	0.93956
356.073	1.86329
356.286	1.56692
356.499	2.57058
356.712	2.07962
356.925	2.36533
357.138	2.76736
357.35	1.19076
357.563	1.58104
357.776	2.02068
357.989	1.56596
358.201	2.36577
358.414	1.73474
358.627	2.88441
358.84	1.63095
359.052	1.08874
359.265	0.8003
359.478	2.74993
359.69	-0.40447
359.903	2.18193
360.116	2.48636
360.328	0.39269
360.541	2.46327
360.753	0.97447
360.966	1.36295
361.179	1.38512
361.391	1.29936
361.604	0.90713
361.816	1.28514
362.029	1.11199
362.241	1.04894
362.454	1.29365
362.666	0.95592
362.879	1.60488
363.091	1.46002
363.304	0.97271
363.516	1.68324
363.728	0.79367
363.941	2.09459
364.153	1.22427
364.366	-0.06702
364.578	0.83982
364.79	2.07493
365.003	1.59947
365.215	1.38212
365.427	1.98658
365.639	2.6592
365.852	1.97333
366.064	3.2061
366.276	1.21113
366.488	2.1163
366.701	1.25032
366.913	1.59046
367.125	1.54603
367.337	1.13093
367.549	1.27234
367.762	1.73827
367.974	1.8245
368.186	0.99885
368.398	2.65564
368.61	2.21238
368.822	2.236
369.034	1.63178
369.246	2.24858
369.458	3.58669
369.67	1.00614
369.882	3.25106
370.094	0.1315
370.306	2.94518
370.518	1.29498
370.73	0.93101
370.942	1.00293
371.154	1.37353
371.366	1.04879
371.578	1.87517
371.79	0.99549
372.002	2.6169
372.214	3.03164
372.425	1.74165
372.637	2.70299
372.849	1.61209
373.061	-0.03181
373.273	1.97444
373.484	1.93521
373.696	2.30654
373.908	-0.03532
374.12	2.53653
374.331	2.07782
374.543	1.05569
374.755	0.87917
374.967	1.82953
375.178	2.26258
375.39	1.53364
375.602	1.88806
375.813	0.80796
376.025	0.37939
376.236	1.58777
376.448	1.59993
376.66	1.20193
376.871	1.17505
377.083	2.25749
377.294	2.54879
377.506	1.20101
377.717	2.4468
377.929	1.68
378.14	0.94119
378.352	1.90892
378.563	1.82185
378.775	2.43785
378.986	0.92279
379.197	1.57589
379.409	1.14795
379.62	2.18253
379.832	1.78558
380.043	1.43105
380.254	1.62035
380.466	0.56273
380.677	3.72487
380.888	3.16249
381.1	3.5127
381.311	3.27482
381.522	1.51702
381.733	3.65716
381.945	1.32032
382.156	1.6464
382.367	1.28216
382.578	3.85211
382.789	3.62942
383.001	1.34367
383.212	2.47002
383.423	2.64877
383.634	2.39674
383.845	1.86177
384.056	1.26136
384.267	1.4615
384.478	1.34865
384.69	0.76498
384.901	1.93524
385.112	1.75931
385.323	2.69524
385.534	1.88134
385.745	1.80485
385.956	1.80183
386.167	0.76622
386.378	1.71797
386.588	0.67705
386.799	0.90845
387.01	0.12747
387.221	2.12594
387.432	1.48483
387.643	2.84747
387.854	1.40036
388.065	1.25793
388.275	1.34665
388.486	1.24736
388.697	1.44729
388.908	1.3721
389.119	2.47684
389.329	2.66641
389.54	1.50588
389.751	1.83242
389.962	2.29317
390.172	1.57106
390.383	1.12506
390.594	0.9815
390.804	0.9103
391.015	0.94938
391.226	1.4752
391.436	1.78756
391.647	1.57436
391.858	1.83248
392.068	0.252
392.279	0.46839
392.489	1.38423
392.7	2.30988
392.91	0.6346
393.121	0.9817
393.331	1.67032
393.542	2.24158
393.752	1.67498
393.963	1.50966
394.173	1.35251
394.384	1.8
394.594	1.39237
394.804	0.54832
395.015	1.42991
395.225	1.73976
395.436	0.64464
395.646	1.84357
395.856	0.87085
396.067	0.57793
396.277	2.24521
396.487	1.51768
396.697	1.44503
396.908	1.97534
397.118	1.92642
397.328	1.49679
397.538	2.11108
397.749	0.93555
397.959	2.01283
398.169	1.94704
398.379	0.53217
398.589	1.88361
398.8	1.45613
399.01	1.31778
399.22	1.40475
399.43	2.93665
399.64	0.98588
399.85	1.95732
400.06	1.25094
400.27	1.0233
400.48	1.57601
400.69	2.49373
400.9	1.12031
401.11	0.99564
401.32	2.26404
401.53	1.1405
401.74	2.62953
401.95	2.10205
402.16	0.79728
402.37	1.69915
402.58	0.90415
402.79	1.86259
403	2.17168
403.209	1.09277
403.419	1.93151
403.629	0.97988
403.839	1.89485
404.049	2.00809
404.258	0.75174
404.468	0.82179
404.678	1.83402
404.888	1.85802
405.097	0.76497
405.307	1.44546
405.517	1.81197
405.727	1.48519
405.936	1.26847
406.146	1.57806
406.356	2.34503
406.565	1.37582
406.775	0.9975
406.984	1.06195
407.194	2.85889
407.404	1.45777
407.613	1.77634
407.823	2.15315
408.032	2.29235
408.242	2.18645
408.451	1.19766
408.661	1.24959
408.87	2.60183
409.08	1.15761
409.289	1.74653
409.499	1.50747
409.708	1.6002
409.918	0.16026
410.127	1.46674
410.336	2.47694
410.546	1.90895
410.755	1.11696
410.964	1.19448
411.174	0.80828
411.383	1.84919
411.592	1.72879
411.802	0.83947
412.011	2.31228
412.22	1.46305
412.429	2.51694
412.639	2.51654
412.848	2.51254
413.057	2.645
413.266	2.30975
413.475	1.42041
413.685	2.10368
413.894	1.90905
414.103	2.37064
414.312	2.09967
414.521	1.49876
414.73	1.75572
414.939	2.86295
415.148	1.92751
415.357	1.76922
415.566	1.27626
415.776	1.15602
415.985	1.11719
416.194	2.05769
416.403	2.56276
416.611	0.60777
416.82	1.0612
417.029	1.50812
417.238	0.99338
417.447	0.77992
417.656	1.05156
417.865	0.85483
418.074	1.08245
418.283	1.45775
418.492	2.07161
418.7	1.9754
418.909	2.72464
419.118	1.64649
419.327	1.99429
419.536	1.68827
419.744	1.33143
419.953	2.59636
420.162	2.49023
420.371	1.26849
420.579	1.17619
420.788	2.34526
420.997	2.47761
421.205	2.30939
421.414	2.01171
421.623	2.14538
421.831	1.58255
422.04	2.38382
422.249	1.48275
422.457	2.28894
422.666	1.61838
422.874	2.6824
423.083	2.58471
423.291	2.54087
423.5	2.08259
423.708	2.37566
423.917	2.72592
424.125	2.10199
424.334	1.72632
424.542	3.80378
424.751	2.92101
424.959	2.65283
425.167	3.21568
425.376	3.03244
425.584	2.33961
425.793	2.59776
426.001	1.54265
426.209	2.60598
426.418	1.58837
426.626	1.66242
426.834	1.34746
427.042	1.78695
427.251	1.36627
