Data from WindowProjectSample_Transmission__13__00013.txt Node

Date: Sat May 03 15:05:29 EDT 2025
User: jessi
Spectrometer: SR400872
Trigger mode: 0
Integration Time (sec): 5.000010E-1
Scans to average: 6
Electric dark correction enabled: true
Nonlinearity correction enabled: true
Boxcar width: 0
XAxis mode: Wavelengths
Number of Pixels in Spectrum: 3648
>>>>>Begin Spectral Data<<<<<
184.909	18040.33808
185.132	2603.33291
185.355	23968.2278
185.578	-7997.61674
185.801	264.85927
186.024	-1528.03531
186.247	851.91965
186.47	1977.64408
186.693	-179.39754
186.916	-2176.1691
187.139	-2659.56734
187.362	1697.99935
187.585	2763.59638
187.808	-3322.61486
188.031	-1389.56273
188.254	-1228.17095
188.476	-729.65397
188.699	2720.33074
188.922	-896.50774
189.145	-10128.7283
189.368	-348.01886
189.591	-1176.47894
189.813	-1729.92474
190.036	1401.339
190.259	1665.53224
190.482	622.27911
190.705	10504.41408
190.927	-1048.24237
191.15	3584.4033
191.373	2164.03361
191.595	-2343.19243
191.818	2481.68708
192.041	-308.96308
192.263	2596.13641
192.486	2107.92589
192.709	-5179.76771
192.931	2890.5301
193.154	-6231.61763
193.377	198085.62805
193.599	1322.65439
193.822	1909.30202
194.044	-2172.99286
194.267	456.34148
194.489	-307.6941
194.712	1400.36443
194.934	3369.60218
195.157	-14544.15903
195.379	722.44587
195.602	2259.90656
195.824	2046.54685
196.047	2111.10572
196.269	2750.68246
196.492	3240.19859
196.714	2725.03428
196.936	1139.3136
197.159	1449.04813
197.381	-2163.35845
197.604	-1425.22655
197.826	6672.14216
198.048	3053.55781
198.271	3995.01735
198.493	2140.46901
198.715	-5930.1041
198.938	-495.47623
199.16	1880.57868
199.382	1480.0907
199.604	-681.20712
199.827	8987.4539
200.049	965.6876
200.271	-2956.7196
200.493	-54502.64053
200.715	2263.96286
200.938	6806.88955
201.16	-7087.2531
201.382	-2942.02116
201.604	-1900.72658
201.826	6541.90459
202.048	856.96092
202.27	-16407.89503
202.492	4470.93027
202.715	-1138.00693
202.937	4426.92348
203.159	-2239.02758
203.381	931.36723
203.603	-3632.32999
203.825	-2667.876
204.047	3396.11677
204.269	-2297.17009
204.491	2127.1962
204.713	1964.31205
204.935	15217.77405
205.156	1758.42086
205.378	-8064.49636
205.6	-4200.30769
205.822	9154.428
206.044	-661.11133
206.266	4165.74138
206.488	1099.6009
206.71	29884.22266
206.932	2360.44724
207.153	-4579.88009
207.375	-1822.6895
207.597	8808.14263
207.819	4445.79795
208.041	2184.50054
208.262	-2334.62645
208.484	-1070.36626
208.706	-2635.17532
208.927	28013.97912
209.149	1025.85169
209.371	-6282.9493
209.593	1149.20996
209.814	5324.50859
210.036	-2950.81554
210.258	-5039.68241
210.479	-1257.27063
210.701	988.16898
210.922	7019.94312
211.144	-1308.91924
211.366	-5934.92757
211.587	-732.68073
211.809	8857.8022
212.03	-1331.45688
212.252	-2353.41681
212.473	807.84771
212.695	-2241.60594
212.916	2675.04403
213.138	3667.17666
213.359	-1752.15826
213.581	6613.04901
213.802	-1488.59922
214.024	16972.54399
214.245	-3418.19641
214.466	-585.60979
214.688	1668.04174
214.909	928.07159
215.131	-100014.43799
215.352	1562.5862
215.573	2495.09256
215.795	3071.84672
216.016	4110.26273
216.237	-561.81437
216.459	6605.05878
216.68	103173.05675
216.901	-82403.13815
217.122	1884.04537
217.344	6082.75233
217.565	-57535.89999
217.786	1578.06337
218.007	1758.82105
218.228	-997.84911
218.45	-1228.88262
218.671	-1131.59558
218.892	1210.04223
219.113	-18202.34689
219.334	-317.11435
219.555	-5609.56007
219.776	1582.05846
219.997	3456.9054
220.219	1153.86541
220.44	2357.29279
220.661	-2459.95675
220.882	3648.11628
221.103	-1229.64614
221.324	986.51464
221.545	2248.57729
221.766	-5859.36171
221.987	4252.12018
222.208	-2011.70445
222.429	3548.01662
222.65	-213.58875
222.87	-586.65082
223.091	8469.30492
223.312	2465.93989
223.533	6777.89812
223.754	1813.38883
223.975	1423.36862
224.196	-11623.04662
224.417	1012.5329
224.637	934.54418
224.858	-889.23093
225.079	6629.44917
225.3	580.11325
225.521	2081.15639
225.741	1556.47697
225.962	770.03879
226.183	279.79334
226.404	653.34591
226.624	563.543
226.845	369.27385
227.066	402.24128
227.286	192.97047
227.507	91.3294
227.728	78.20311
227.948	129.7951
228.169	36.89866
228.389	44.69936
228.61	24.93866
228.831	35.24136
229.051	3.1456
229.272	20.8274
229.492	29.45773
229.713	8.88811
229.933	22.3069
230.154	18.50007
230.374	31.8627
230.595	22.55384
230.815	15.37769
231.036	24.32312
231.256	-6.27462
231.477	42.66844
231.697	25.47615
231.917	20.22648
232.138	36.46723
232.358	76.94568
232.579	63.34216
232.799	10.07969
233.019	64.06939
233.24	77.99732
233.46	25.20137
233.68	40.25923
233.901	30.78689
234.121	16.93166
234.341	7.69365
234.561	-2.76749
234.782	14.16754
235.002	45.64729
235.222	-1.64277
235.442	43.85597
235.662	20.60791
235.883	41.01273
236.103	35.6732
236.323	25.63088
236.543	19.50612
236.763	28.63809
236.983	28.34037
237.203	31.03693
237.423	44.76647
237.643	61.39829
237.864	53.24681
238.084	14.71809
238.304	22.15842
238.524	31.70913
238.744	30.60872
238.964	45.64914
239.184	42.96736
239.404	42.63093
239.624	22.87166
239.843	38.10686
240.063	25.15916
240.283	17.16754
240.503	17.40582
240.723	16.40513
240.943	9.37169
241.163	13.49246
241.383	9.59389
241.603	4.73394
241.822	6.07839
242.042	4.64194
242.262	5.95668
242.482	6.61767
242.702	8.20247
242.921	2.63017
243.141	5.70821
243.361	5.04812
243.581	7.32249
243.8	6.29595
244.02	4.65774
244.24	7.78689
244.459	7.56054
244.679	14.16756
244.899	8.8307
245.118	10.18808
245.338	8.18797
245.558	11.10682
245.777	6.50003
245.997	7.19399
246.216	7.5535
246.436	4.16795
246.655	3.47646
246.875	2.22769
247.094	5.00164
247.314	1.45606
247.533	2.79583
247.753	3.63182
247.972	2.79011
248.192	0.83144
248.411	1.7379
248.631	3.2294
248.85	3.90871
249.07	3.06481
249.289	4.98635
249.508	3.66675
249.728	6.20569
249.947	6.32746
250.166	6.77979
250.386	4.41646
250.605	5.53772
250.824	8.17394
251.044	6.23648
251.263	20.22925
251.482	10.38342
251.701	10.10023
251.921	-0.23331
252.14	3.05149
252.359	3.47508
252.578	8.47014
252.798	3.00427
253.017	7.73076
253.236	3.9345
253.455	4.59487
253.674	9.76334
253.893	3.99165
254.112	6.17586
254.331	8.44193
254.551	8.17381
254.77	3.27625
254.989	11.04473
255.208	9.92341
255.427	12.68487
255.646	9.65025
255.865	17.3513
256.084	7.58177
256.303	8.52479
256.522	11.52561
256.741	2.09582
256.96	2.76764
257.179	6.96237
257.397	8.4057
257.616	4.3922
257.835	5.02344
258.054	11.75555
258.273	7.52838
258.492	8.92496
258.711	5.35001
258.93	2.46674
259.148	3.24746
259.367	3.39778
259.586	4.38301
259.805	2.14022
260.023	4.17963
260.242	3.215
260.461	2.24624
260.68	1.15662
260.898	3.78385
261.117	1.29428
261.336	0.90974
261.554	3.28899
261.773	3.24605
261.992	0.5959
262.21	3.02671
262.429	3.88438
262.648	6.28644
262.866	7.15255
263.085	4.44707
263.303	4.36135
263.522	7.35552
263.74	7.7903
263.959	12.33052
264.178	6.44434
264.396	5.19361
264.615	3.73864
264.833	9.62807
265.051	8.41503
265.27	8.52843
265.488	9.64249
265.707	5.46806
265.925	8.80028
266.144	3.96842
266.362	5.28521
266.58	5.00376
266.799	4.23645
267.017	5.37121
267.235	4.64579
267.454	2.87751
267.672	2.04335
267.89	3.65944
268.109	3.88712
268.327	3.8886
268.545	0.77405
268.763	3.39365
268.982	1.472
269.2	4.42341
269.418	2.53868
269.636	1.9071
269.854	3.73632
270.073	2.73097
270.291	1.94933
270.509	1.60188
270.727	3.6991
270.945	5.96537
271.163	6.01586
271.381	1.58606
271.599	2.47676
271.817	4.55592
272.036	1.54041
272.254	2.643
272.472	2.35425
272.69	2.1457
272.908	1.99421
273.126	3.78372
273.344	4.52919
273.562	1.78909
273.779	2.33543
273.997	3.3229
274.215	3.92551
274.433	2.57778
274.651	3.7902
274.869	4.04169
275.087	2.69304
275.305	3.94123
275.523	1.88437
275.74	2.85623
275.958	4.75928
276.176	6.94731
276.394	2.39819
276.612	2.89768
276.829	2.89761
277.047	2.28105
277.265	2.72145
277.483	3.39474
277.7	3.83792
277.918	2.99029
278.136	5.66129
278.353	2.74128
278.571	1.22015
278.789	4.46335
279.006	0.82376
279.224	2.55953
279.442	4.30675
279.659	2.80367
279.877	2.15197
280.094	4.70948
280.312	1.17937
280.529	2.95729
280.747	0.95838
280.964	2.36621
281.182	5.21293
281.399	2.45823
281.617	3.40846
281.834	2.32758
282.052	1.76669
282.269	2.59965
282.487	2.32869
282.704	1.68723
282.921	2.30479
283.139	2.80434
283.356	3.78503
283.574	3.10967
283.791	1.76019
284.008	4.59766
284.226	2.55235
284.443	2.82869
284.66	3.5149
284.877	2.93171
285.095	1.9575
285.312	1.4313
285.529	0.95376
285.746	0.7527
285.964	1.83988
286.181	1.28482
286.398	1.70145
286.615	2.33174
286.832	2.31962
287.05	0.77685
287.267	1.52064
287.484	1.73084
287.701	2.47554
287.918	2.35929
288.135	2.4958
288.352	1.04352
288.569	1.32534
288.786	2.10826
289.003	1.63366
289.22	2.46346
289.437	1.58273
289.654	2.72667
289.871	2.83776
290.088	2.5619
290.305	2.02986
290.522	1.60827
290.739	2.00735
290.956	2.83013
291.173	3.3865
291.39	3.25499
291.607	2.35503
291.824	1.86169
292.04	1.14056
292.257	2.50525
292.474	2.75687
292.691	1.99318
292.908	0.98251
293.125	1.61757
293.341	1.02537
293.558	4.5776
293.775	1.66411
293.992	2.10703
294.208	0.74386
294.425	1.01127
294.642	1.56459
294.858	2.96967
295.075	0.70776
295.292	1.7764
295.508	2.35344
295.725	3.40675
295.942	1.65282
296.158	1.18269
296.375	1.94116
296.591	1.56351
296.808	1.57081
297.024	1.79821
297.241	1.97895
297.458	2.23149
297.674	0.29688
297.891	1.77049
298.107	1.58829
298.323	1.02589
298.54	2.83873
298.756	1.36149
298.973	0.62489
299.189	2.89271
299.406	1.48201
299.622	2.84174
299.838	2.73074
300.055	2.55047
300.271	1.03799
300.487	0.99485
300.704	1.48805
300.92	1.06846
301.136	4.10819
301.353	2.77789
301.569	2.11088
301.785	2.40035
302.001	2.88842
302.218	2.44561
302.434	2.60713
302.65	1.186
302.866	1.85532
303.083	4.1109
303.299	4.1138
303.515	2.44907
303.731	2.78645
303.947	1.45108
304.163	1.95967
304.379	2.59621
304.595	2.89922
304.812	1.8839
305.028	1.75209
305.244	2.25159
305.46	2.99005
305.676	3.39052
305.892	3.75669
306.108	3.01759
306.324	2.1981
306.54	4.08916
306.756	3.09642
306.972	2.98563
307.187	2.75494
307.403	3.62448
307.619	2.00863
307.835	3.41389
308.051	3.75551
308.267	1.63055
308.483	3.87241
308.699	3.25455
308.914	2.85295
309.13	2.55334
309.346	1.71736
309.562	2.03557
309.778	1.59007
309.993	3.15952
310.209	3.05132
310.425	1.79349
310.641	2.9596
310.856	2.21093
311.072	1.9478
311.288	2.79709
311.503	3.45899
311.719	1.60825
311.935	1.75597
312.15	3.63463
312.366	3.33834
312.581	3.41532
312.797	3.26118
313.013	3.76777
313.228	2.51451
313.444	2.69484
313.659	2.39743
313.875	3.18392
314.09	2.77883
314.306	3.76804
314.521	3.64745
314.737	3.66643
314.952	3.11758
315.168	3.03925
315.383	3.55055
315.599	2.48022
315.814	2.88132
316.029	3.54427
316.245	2.18965
316.46	1.32767
316.675	3.93257
316.891	4.42107
317.106	5.44491
317.321	3.18958
317.537	3.50963
317.752	3.9447
317.967	3.74583
318.183	2.27799
318.398	2.74138
318.613	3.72444
318.828	4.43105
319.043	3.54104
319.259	2.79935
319.474	3.3821
319.689	3.83753
319.904	1.5073
320.119	4.1723
320.334	3.1977
320.549	3.07166
320.765	4.26649
320.98	3.48353
321.195	3.53411
321.41	3.05171
321.625	3.70661
321.84	4.55053
322.055	4.35095
322.27	2.40613
322.485	2.22707
322.7	3.52743
322.915	4.12772
323.13	2.91139
323.345	4.79228
323.56	4.27622
323.775	3.90949
323.989	3.85225
324.204	3.54239
324.419	4.16966
324.634	2.29233
324.849	3.39407
325.064	5.93981
325.279	4.46279
325.493	3.94244
325.708	4.16425
325.923	2.67976
326.138	3.44971
326.352	4.80388
326.567	4.29161
326.782	3.13717
326.997	3.21031
327.211	4.08775
327.426	3.71186
327.641	3.54432
327.855	2.47621
328.07	4.38548
328.285	5.31734
328.499	3.24067
328.714	4.03553
328.928	4.04574
329.143	3.80152
329.358	4.66129
329.572	4.74622
329.787	5.17549
330.001	5.96682
330.216	2.23166
330.43	5.72065
330.645	4.91503
330.859	4.53874
331.074	2.80091
331.288	3.90756
331.503	5.50577
331.717	2.70497
331.931	3.97356
332.146	4.20971
332.36	5.91504
332.575	4.44929
332.789	4.03317
333.003	4.25157
333.218	4.63272
333.432	3.91205
333.646	5.04722
333.86	5.79168
334.075	5.69763
334.289	3.79565
334.503	3.01234
334.717	5.15066
334.932	4.40344
335.146	4.81527
335.36	3.23657
335.574	4.40361
335.788	4.2671
336.003	4.95086
336.217	5.35792
336.431	4.6301
336.645	3.93799
336.859	3.56658
337.073	4.43387
337.287	4.76721
337.501	3.34811
337.715	5.29869
337.929	5.02263
338.143	3.88703
338.357	4.54766
338.571	4.53977
338.785	5.72081
338.999	4.27516
339.213	4.41426
339.427	3.9
339.641	5.93564
339.855	4.36714
340.069	3.92182
340.283	5.63514
340.497	6.13502
340.711	5.43078
340.924	5.12542
341.138	4.33967
341.352	3.79367
341.566	5.25849
341.78	4.05451
341.993	4.64909
342.207	4.50637
342.421	5.60909
342.635	5.15544
342.848	4.81767
343.062	2.96753
343.276	4.73497
343.49	6.92163
343.703	4.64146
343.917	6.0654
344.131	6.44078
344.344	4.48661
344.558	5.0464
344.771	4.42345
344.985	6.40756
345.199	7.01726
345.412	5.72834
345.626	6.29044
345.839	4.42931
346.053	4.75605
346.266	4.81935
346.48	6.1294
346.693	6.05763
346.907	6.19787
347.12	4.8742
347.334	5.73382
347.547	5.93179
347.76	5.70038
347.974	6.35449
348.187	5.92093
348.401	5.33416
348.614	4.80806
348.827	5.54378
349.041	6.13949
349.254	4.2708
349.467	5.48913
349.681	5.34716
349.894	5.1504
350.107	7.12864
350.32	7.87883
350.534	4.88228
350.747	5.7592
350.96	5.50353
351.173	5.5847
351.386	5.7773
351.6	5.397
351.813	5.94207
352.026	5.90955
352.239	5.58335
352.452	5.68702
352.665	7.1896
352.878	5.91121
353.092	8.12111
353.305	6.94002
353.518	6.72353
353.731	5.57771
353.944	7.29833
354.157	6.19625
354.37	6.17256
354.583	5.29143
354.796	5.80368
355.009	7.494
355.222	7.02366
355.435	6.88062
355.647	7.61037
355.86	6.37541
356.073	7.10003
356.286	6.4714
356.499	7.92515
356.712	7.89483
356.925	7.68119
357.138	8.07771
357.35	6.83163
357.563	6.94558
357.776	7.65171
357.989	7.65621
358.201	7.97119
358.414	7.91828
358.627	8.65552
358.84	7.48485
359.052	6.78344
359.265	7.00487
359.478	8.43192
359.69	5.64618
359.903	8.59953
360.116	8.69132
360.328	6.76946
360.541	8.66695
360.753	7.73068
360.966	8.10799
361.179	8.37939
361.391	8.17339
361.604	8.12501
361.816	8.1302
362.029	8.33678
362.241	8.05604
362.454	8.52668
362.666	7.98023
362.879	9.11702
363.091	8.45176
363.304	8.38983
363.516	8.25532
363.728	7.76842
363.941	9.06256
364.153	9.0493
364.366	7.35653
364.578	7.93642
364.79	9.05304
365.003	9.15069
365.215	8.48416
365.427	9.40972
365.639	9.73983
365.852	9.03807
366.064	10.12232
366.276	8.85161
366.488	9.32508
366.701	8.98451
366.913	8.93654
367.125	9.16862
367.337	8.74458
367.549	9.04774
367.762	9.10845
367.974	9.27542
368.186	9.28412
368.398	10.17671
368.61	9.59084
368.822	9.92366
369.034	9.15518
369.246	10.4416
369.458	11.79211
369.67	9.00354
369.882	11.01604
370.094	8.42102
370.306	10.91287
370.518	9.6609
370.73	9.61503
370.942	9.80022
371.154	10.2222
371.366	10.1531
371.578	10.87227
371.79	10.45969
372.002	11.22621
372.214	12.36269
372.425	10.47897
372.637	12.03142
372.849	11.08473
373.061	9.23685
373.273	10.84941
373.484	11.20472
373.696	11.49531
373.908	9.26494
374.12	11.46165
374.331	11.63657
374.543	10.39365
374.755	10.41986
374.967	11.3653
375.178	12.27499
375.39	11.14976
375.602	11.68528
375.813	10.31907
376.025	10.9125
376.236	11.78919
376.448	11.99069
376.66	11.86029
376.871	12.03859
377.083	12.88492
377.294	13.6099
377.506	11.79089
377.717	13.12195
377.929	12.65362
378.14	12.38802
378.352	12.85271
378.563	13.15048
378.775	13.62083
378.986	12.01899
379.197	12.70766
379.409	11.98958
379.62	13.06428
379.832	13.18496
380.043	12.74162
380.254	13.33069
380.466	12.32354
380.677	15.22369
380.888	14.73456
381.1	15.62843
381.311	15.38885
381.522	13.88487
381.733	15.69894
381.945	13.49949
382.156	13.33962
382.367	13.78396
382.578	16.01577
382.789	16.27391
383.001	13.20483
383.212	15.56254
383.423	15.4183
383.634	14.89187
383.845	14.91418
384.056	14.32523
384.267	14.5661
384.478	14.83632
384.69	13.88241
384.901	15.24004
385.112	14.98358
385.323	16.38722
385.534	15.42631
385.745	15.68442
385.956	15.39398
386.167	14.72412
386.378	15.97521
386.588	15.27104
386.799	14.59477
387.01	14.61894
387.221	16.41561
387.432	15.91963
387.643	17.07991
387.854	15.70063
388.065	15.80324
388.275	15.78084
388.486	15.51547
388.697	16.4808
388.908	15.97949
389.119	17.13627
389.329	17.46795
389.54	16.47939
389.751	16.98765
389.962	17.67563
390.172	16.70386
390.383	16.94047
390.594	16.35769
390.804	16.67127
391.015	16.90333
391.226	17.53824
391.436	17.96031
391.647	17.6973
391.858	17.61064
392.068	16.43998
392.279	17.06781
392.489	18.03683
392.7	18.4519
392.91	17.55358
393.121	17.53642
393.331	18.14958
393.542	19.00766
393.752	18.68708
393.963	18.85294
394.173	18.92286
394.384	19.00156
394.594	18.63551
394.804	17.72554
395.015	18.63568
395.225	19.27398
395.436	17.87054
395.646	18.93785
395.856	18.45998
396.067	17.92951
396.277	19.3642
396.487	19.30619
396.697	19.52285
396.908	19.87301
397.118	19.53556
397.328	19.21578
397.538	19.90876
397.749	19.00819
397.959	20.01119
398.169	19.68771
398.379	18.78567
398.589	19.86071
398.8	20.03928
399.01	20.14057
399.22	19.70017
399.43	21.27425
399.64	19.93579
399.85	20.35813
400.06	20.2327
400.27	19.61864
400.48	19.96749
400.69	20.78604
400.9	19.91117
401.11	19.34894
401.32	20.67861
401.53	19.99767
401.74	21.28065
401.95	20.88196
402.16	20.60023
402.37	20.97343
402.58	20.69827
402.79	20.97054
403	21.40253
403.209	20.72654
403.419	21.93377
403.629	20.63616
403.839	21.98346
404.049	22.0568
404.258	21.39331
404.468	21.02632
404.678	22.06253
404.888	22.45938
405.097	21.76346
405.307	21.49084
405.517	22.24384
405.727	21.87233
405.936	21.22476
406.146	21.80658
406.356	22.73809
406.565	21.41947
406.775	21.30344
406.984	21.52796
407.194	23.24525
407.404	21.79581
407.613	22.57326
407.823	22.32852
408.032	22.99581
408.242	22.53814
408.451	21.61382
408.661	22.06875
408.87	23.44616
409.08	21.67872
409.289	22.53933
409.499	22.75507
409.708	22.52799
409.918	21.23595
410.127	22.83647
410.336	23.62334
410.546	23.16053
410.755	22.47938
410.964	22.35938
411.174	21.86891
411.383	23.04336
411.592	22.81511
411.802	22.36838
412.011	23.05762
412.22	22.60993
412.429	24.05963
412.639	23.97291
412.848	23.53698
413.057	24.13789
413.266	23.89162
413.475	22.93244
413.685	23.3609
413.894	23.70601
414.103	23.74022
414.312	23.63801
414.521	23.12574
414.73	23.4984
414.939	24.61116
415.148	23.7213
415.357	23.5765
415.566	23.58852
415.776	23.45458
415.985	23.65015
416.194	24.06687
416.403	25.03557
416.611	23.06396
416.82	23.72858
417.029	24.1164
417.238	23.71495
417.447	23.74867
417.656	24.20402
417.865	24.31048
418.074	25.05551
418.283	26.48671
418.492	28.39353
418.7	27.77128
418.909	30.9585
419.118	29.55523
419.327	30.5678
419.536	30.59548
419.744	31.68232
419.953	33.72989
420.162	34.60798
420.371	34.48539
420.579	36.62982
420.788	37.2955
420.997	37.53739
421.205	38.35113
421.414	37.81657
421.623	38.15437
421.831	37.269
422.04	37.63564
422.249	35.80454
422.457	35.92924
422.666	34.44536
422.874	35.20777
423.083	35.86406
423.291	36.52172
423.5	37.19101
423.708	38.04195
423.917	38.88997
424.125	37.77016
424.334	38.05143
424.542	40.02689
