Data from WindowProjectSample_Transmission__14__00014.txt Node

Date: Sat May 03 15:06:48 EDT 2025
User: jessi
Spectrometer: SR400872
Trigger mode: 0
Integration Time (sec): 5.000010E-1
Scans to average: 6
Electric dark correction enabled: true
Nonlinearity correction enabled: true
Boxcar width: 0
XAxis mode: Wavelengths
Number of Pixels in Spectrum: 3648
>>>>>Begin Spectral Data<<<<<
184.909	17573.04395
185.132	2645.59078
185.355	23265.56948
185.578	-8035.89167
185.801	323.25142
186.024	-1505.57091
186.247	849.1266
186.47	2174.23708
186.693	-295.71621
186.916	-2863.54305
187.139	-2673.93306
187.362	1493.31071
187.585	2802.00187
187.808	-3434.85622
188.031	-1108.97558
188.254	-1320.27841
188.476	-830.28548
188.699	2498.31882
188.922	-841.95311
189.145	-10005.80281
189.368	-342.1462
189.591	-1101.99379
189.813	-1644.28611
190.036	1176.91074
190.259	1899.11493
190.482	604.81092
190.705	11026.06067
190.927	-1050.1882
191.15	3431.27846
191.373	2317.64799
191.595	-2192.73233
191.818	2545.36291
192.041	-276.09368
192.263	2747.28568
192.486	1977.91634
192.709	-5416.04355
192.931	2913.86939
193.154	-6188.9101
193.377	193044.98391
193.599	1311.29512
193.822	1593.40634
194.044	-2143.45052
194.267	455.65081
194.489	-483.2014
194.712	1398.80613
194.934	3361.47162
195.157	-14913.44336
195.379	815.88402
195.602	2215.66016
195.824	1985.54324
196.047	2348.03099
196.269	2805.93895
196.492	3600.4216
196.714	2887.25385
196.936	1173.81506
197.159	1345.81689
197.381	-2313.55999
197.604	-1180.5916
197.826	6171.79843
198.048	3003.6101
198.271	4153.81589
198.493	1944.83894
198.715	-5926.83832
198.938	-600.93817
199.16	1711.77675
199.382	1466.96156
199.604	-751.39712
199.827	9156.26669
200.049	942.95872
200.271	-3218.10606
200.493	-49017.19902
200.715	2417.59509
200.938	6747.34854
201.16	-7114.76036
201.382	-2947.62086
201.604	-2049.21294
201.826	6724.74661
202.048	957.74398
202.27	-17895.97605
202.492	4499.86603
202.715	-1170.72399
202.937	4667.51563
203.159	-2282.86828
203.381	863.48297
203.603	-3333.84486
203.825	-2648.66982
204.047	3547.03023
204.269	-2224.93591
204.491	2038.6532
204.713	1947.92571
204.935	14187.64476
205.156	1653.6451
205.378	-8477.28551
205.6	-4233.07164
205.822	9182.90069
206.044	-693.02233
206.266	4116.99783
206.488	1140.45822
206.71	28587.53828
206.932	2420.8
207.153	-4890.00698
207.375	-2067.14012
207.597	8735.40171
207.819	4337.65851
208.041	2257.34992
208.262	-2547.6319
208.484	-1153.81543
208.706	-2518.9301
208.927	28773.41194
209.149	985.46066
209.371	-6341.9641
209.593	1465.61853
209.814	4866.08915
210.036	-3730.53176
210.258	-5466.28635
210.479	-1316.13444
210.701	1021.11682
210.922	6675.32244
211.144	-1123.44563
211.366	-6230.40451
211.587	-532.51715
211.809	9714.88889
212.03	-1323.52417
212.252	-1629.65381
212.473	819.50704
212.695	-2652.26391
212.916	2983.10888
213.138	3660.60261
213.359	-1870.1893
213.581	6191.73456
213.802	-1333.99092
214.024	16387.3293
214.245	-3379.49588
214.466	-718.77304
214.688	1693.05369
214.909	904.29051
215.131	-96204.80657
215.352	1689.49203
215.573	2469.08415
215.795	3037.34837
216.016	4198.42143
216.237	-574.78433
216.459	6545.96564
216.68	104427.74437
216.901	-82636.51383
217.122	1857.20346
217.344	6286.86741
217.565	-55250.39917
217.786	1478.13164
218.007	1996.88622
218.228	-1044.40286
218.45	-1295.55197
218.671	-1043.60364
218.892	1071.89217
219.113	-17933.3864
219.334	-466.19759
219.555	-5609.56007
219.776	1591.38053
219.997	3641.8505
220.219	1104.70616
220.44	2275.05824
220.661	-2710.47098
220.882	3571.15124
221.103	-1263.75347
221.324	978.71287
221.545	2226.61012
221.766	-6109.81896
221.987	3840.92934
222.208	-2069.39373
222.429	3551.73272
222.65	-128.91258
222.87	-580.57895
223.091	8102.62688
223.312	2283.85518
223.533	6826.04042
223.754	1844.16089
223.975	1457.54716
224.196	-11518.42769
224.417	1023.83088
224.637	871.61794
224.858	-927.71872
225.079	7820.17908
225.3	562.50441
225.521	2040.05834
225.741	1557.0126
225.962	723.79641
226.183	252.7088
226.404	660.44297
226.624	570.61706
226.845	368.25892
227.066	417.60784
227.286	174.04897
227.507	93.04689
227.728	85.08724
227.948	127.62239
228.169	42.63398
228.389	45.70121
228.61	23.67242
228.831	34.69392
229.051	3.61888
229.272	20.77916
229.492	30.66979
229.713	8.89856
229.933	24.20834
230.154	17.67565
230.374	33.85113
230.595	24.58653
230.815	17.11891
231.036	24.04706
231.256	-4.5934
231.477	44.25575
231.697	24.7038
231.917	21.64717
232.138	37.72642
232.358	81.66681
232.579	65.49819
232.799	11.1255
233.019	67.36403
233.24	78.60288
233.46	29.63779
233.68	38.70635
233.901	29.83361
234.121	16.31319
234.341	5.96889
234.561	-3.25227
234.782	13.86407
235.002	44.72987
235.222	-0.85661
235.442	39.79269
235.662	18.74696
235.883	43.62848
236.103	33.77454
236.323	24.2946
236.543	18.14593
236.763	29.0889
236.983	27.06393
237.203	33.29992
237.423	42.03409
237.643	64.67927
237.864	52.7115
238.084	13.78775
238.304	19.92747
238.524	33.472
238.744	28.15057
238.964	46.98983
239.184	43.20265
239.404	46.00704
239.624	23.31225
239.843	42.61038
240.063	23.76228
240.283	16.00474
240.503	16.20524
240.723	17.1583
240.943	8.92007
241.163	12.69075
241.383	10.30272
241.603	4.86274
241.822	6.69809
242.042	4.93658
242.262	6.17812
242.482	7.07759
242.702	8.29649
242.921	2.48371
243.141	5.72068
243.361	4.96013
243.581	6.76528
243.8	6.19645
244.02	3.94168
244.24	7.37941
244.459	7.86505
244.679	14.61438
244.899	8.82783
245.118	9.91552
245.338	8.84982
245.558	10.38328
245.777	5.9866
245.997	7.70785
246.216	7.65359
246.436	4.53654
246.655	3.04406
246.875	2.53721
247.094	4.65407
247.314	1.56125
247.533	2.59562
247.753	3.25585
247.972	2.73951
248.192	1.10322
248.411	1.87596
248.631	3.20449
248.85	3.9314
249.07	2.75196
249.289	5.44208
249.508	3.90519
249.728	5.83094
249.947	6.62346
250.166	7.32648
250.386	3.94071
250.605	5.29563
250.824	8.6042
251.044	6.18951
251.263	20.14871
251.482	10.49642
251.701	9.92946
251.921	0.37969
252.14	2.85214
252.359	3.28345
252.578	8.40949
252.798	2.86699
253.017	7.50657
253.236	3.91487
253.455	4.76187
253.674	10.02594
253.893	4.16594
254.112	6.60864
254.331	9.37282
254.551	7.95224
254.77	3.59166
254.989	11.94288
255.208	10.04398
255.427	12.28886
255.646	10.60588
255.865	17.99324
256.084	7.44832
256.303	8.38703
256.522	11.49419
256.741	2.43329
256.96	3.61362
257.179	7.02094
257.397	8.92945
257.616	4.18866
257.835	4.79137
258.054	11.47922
258.273	8.00459
258.492	8.74346
258.711	5.0435
258.93	2.18442
259.148	3.1556
259.367	3.2829
259.586	4.40456
259.805	2.15437
260.023	4.23239
260.242	3.19609
260.461	2.20543
260.68	1.20981
260.898	3.80502
261.117	1.27312
261.336	1.07792
261.554	3.22917
261.773	3.22929
261.992	0.77459
262.21	2.86896
262.429	3.86915
262.648	6.14153
262.866	6.90403
263.085	4.4857
263.303	4.70177
263.522	7.45992
263.74	7.9064
263.959	12.38025
264.178	6.61288
264.396	5.48667
264.615	4.20319
264.833	9.71839
265.051	8.24027
265.27	8.12832
265.488	9.35517
265.707	5.72365
265.925	9.08698
266.144	4.04652
266.362	5.20061
266.58	5.61889
266.799	4.39377
267.017	5.13348
267.235	4.59549
267.454	3.03248
267.672	1.79097
267.89	3.66721
268.109	3.99315
268.327	3.8776
268.545	1.29422
268.763	3.59742
268.982	1.95096
269.2	4.55204
269.418	2.73173
269.636	1.85053
269.854	3.79959
270.073	2.81666
270.291	1.5033
270.509	1.45401
270.727	3.85502
270.945	5.96234
271.163	6.08562
271.381	1.47546
271.599	2.61944
271.817	4.47207
272.036	1.49546
272.254	2.67173
272.472	2.12914
272.69	2.16619
272.908	1.95286
273.126	3.67262
273.344	4.61359
273.562	1.79474
273.779	2.22081
273.997	3.28713
274.215	3.8446
274.433	2.65381
274.651	4.05039
274.869	4.03781
275.087	2.43043
275.305	3.46335
275.523	2.17838
275.74	2.86237
275.958	4.87669
276.176	7.01481
276.394	1.89198
276.612	2.81938
276.829	2.69744
277.047	2.03651
277.265	2.72635
277.483	3.32885
277.7	3.82394
277.918	3.00644
278.136	5.12696
278.353	2.74232
278.571	1.43653
278.789	4.41575
279.006	0.98259
279.224	2.47555
279.442	4.80698
279.659	3.15071
279.877	1.99636
280.094	4.55759
280.312	0.99173
280.529	3.18662
280.747	0.9335
280.964	2.17912
281.182	5.20472
281.399	2.4148
281.617	3.71844
281.834	2.42129
282.052	1.91845
282.269	2.66222
282.487	2.2621
282.704	1.88068
282.921	2.15178
283.139	2.70065
283.356	3.63294
283.574	3.36229
283.791	1.77578
284.008	4.62847
284.226	2.46007
284.443	2.85791
284.66	3.48288
284.877	2.85968
285.095	2.09811
285.312	1.55033
285.529	0.84701
285.746	0.84836
285.964	1.77327
286.181	1.03722
286.398	1.88057
286.615	2.4384
286.832	2.26518
287.05	0.75419
287.267	1.64669
287.484	1.77298
287.701	2.367
287.918	2.23348
288.135	2.49822
288.352	1.24351
288.569	1.3715
288.786	2.05965
289.003	1.68052
289.22	2.56153
289.437	1.78033
289.654	2.66526
289.871	3.03759
290.088	2.67291
290.305	2.01459
290.522	1.50013
290.739	2.02527
290.956	2.74741
291.173	3.46939
291.39	3.2032
291.607	2.32501
291.824	1.57288
292.04	1.11647
292.257	2.52706
292.474	2.96083
292.691	1.88521
292.908	1.23179
293.125	1.72126
293.341	1.05224
293.558	4.6111
293.775	1.74695
293.992	1.96738
294.208	0.93479
294.425	1.09577
294.642	1.6613
294.858	2.32404
295.075	0.63847
295.292	1.85044
295.508	2.1562
295.725	3.40277
295.942	1.65665
296.158	1.191
296.375	1.89269
296.591	1.42866
296.808	1.57276
297.024	1.78744
297.241	1.99957
297.458	2.22413
297.674	0.16471
297.891	1.70139
298.107	1.4344
298.323	1.02369
298.54	2.55173
298.756	1.21563
298.973	0.43759
299.189	2.60011
299.406	1.12222
299.622	2.73454
299.838	2.57674
300.055	2.53484
300.271	0.65452
300.487	0.71
300.704	1.03161
300.92	0.70761
301.136	3.68968
301.353	2.50626
301.569	1.95328
301.785	2.12463
302.001	2.47536
302.218	2.29329
302.434	2.07442
302.65	0.56781
302.866	1.59968
303.083	3.56273
303.299	3.38207
303.515	1.71033
303.731	1.98607
303.947	0.72922
304.163	1.0619
304.379	2.03664
304.595	2.33353
304.812	1.46786
305.028	1.18857
305.244	1.55949
305.46	2.64534
305.676	2.62349
305.892	3.15004
306.108	1.8671
306.324	1.52631
306.54	3.25457
306.756	2.46473
306.972	2.50658
307.187	1.51662
307.403	3.20912
307.619	1.19684
307.835	2.73227
308.051	2.97383
308.267	0.66797
308.483	2.81452
308.699	2.13183
308.914	1.90818
309.13	1.77517
309.346	0.3582
309.562	0.89123
309.778	0.50285
309.993	2.2883
310.209	1.69587
310.425	0.69392
310.641	1.45907
310.856	0.81947
311.072	0.7968
311.288	1.69875
311.503	1.8299
311.719	0.33909
311.935	0.16721
312.15	1.9752
312.366	1.74277
312.581	2.17426
312.797	1.95421
313.013	2.35835
313.228	1.35231
313.444	1.8278
313.659	1.27657
313.875	2.18629
314.09	1.63447
314.306	2.97956
314.521	2.40584
314.737	2.60962
314.952	2.07455
315.168	1.65282
315.383	2.36481
315.599	1.79201
315.814	1.6186
316.029	2.36712
316.245	0.69932
316.46	0.60181
316.675	3.03694
316.891	3.71833
317.106	4.13016
317.321	2.73663
317.537	2.34243
317.752	2.42686
317.967	2.58478
318.183	1.28148
318.398	1.41778
318.613	2.84402
318.828	3.10209
319.043	2.45535
319.259	1.44295
319.474	2.3781
319.689	2.68616
319.904	0.43591
320.119	2.64924
320.334	2.2323
320.549	1.90871
320.765	2.97373
320.98	2.20316
321.195	2.74893
321.41	1.71957
321.625	2.61917
321.84	3.70042
322.055	3.56182
322.27	1.4294
322.485	1.13659
322.7	2.06615
322.915	2.94321
323.13	1.19268
323.345	3.16256
323.56	2.67507
323.775	2.55242
323.989	2.54808
324.204	2.07902
324.419	2.50498
324.634	0.80269
324.849	1.78124
325.064	4.17399
325.279	2.97465
325.493	2.42269
325.708	2.81877
325.923	1.2552
326.138	1.23476
326.352	3.26582
326.567	2.69052
326.782	1.63414
326.997	1.23759
327.211	2.3815
327.426	2.16643
327.641	1.62923
327.855	0.57009
328.07	2.39679
328.285	3.41561
328.499	1.72812
328.714	2.43135
328.928	2.74825
329.143	1.95664
329.358	2.68898
329.572	2.85314
329.787	3.16877
330.001	4.29579
330.216	0.53008
330.43	3.33611
330.645	3.53697
330.859	2.56702
331.074	1.52218
331.288	2.25014
331.503	3.16313
331.717	1.04631
331.931	1.94239
332.146	2.03358
332.36	3.4107
332.575	2.449
332.789	2.17473
333.003	1.63117
333.218	2.47473
333.432	1.58574
333.646	2.50978
333.86	3.37962
334.075	3.37305
334.289	1.64238
334.503	1.45349
334.717	2.55699
334.932	2.41874
335.146	2.95924
335.36	1.74307
335.574	2.52229
335.788	2.28631
336.003	2.95749
336.217	2.42727
336.431	2.44155
336.645	1.49724
336.859	1.05059
337.073	1.79621
337.287	2.24492
337.501	1.10639
337.715	2.30468
337.929	2.81682
338.143	1.2621
338.357	1.97958
338.571	1.1714
338.785	2.32619
338.999	1.59724
339.213	1.72569
339.427	0.79706
339.641	2.9252
339.855	1.79938
340.069	1.35199
340.283	2.95984
340.497	3.37505
340.711	2.27063
340.924	1.5414
341.138	1.12927
341.352	0.87543
341.566	2.32529
341.78	0.5783
341.993	1.46969
342.207	0.99787
342.421	2.20053
342.635	2.09554
342.848	1.47852
343.062	0.03133
343.276	1.42217
343.49	3.82466
343.703	1.53265
343.917	2.69313
344.131	2.75089
344.344	1.44386
344.558	1.54127
344.771	1.25802
344.985	3.18565
345.199	3.24557
345.412	2.03111
345.626	2.11355
345.839	0.5841
346.053	1.02807
346.266	0.96475
346.48	2.44273
346.693	2.15268
346.907	2.32014
347.12	1.26905
347.334	2.21117
347.547	2.2514
347.76	1.77174
347.974	2.96042
348.187	2.21955
348.401	1.57198
348.614	1.42337
348.827	1.54566
349.041	2.50684
349.254	0.62242
349.467	1.60585
349.681	0.75612
349.894	1.36365
350.107	3.18716
350.32	3.04856
350.534	0.56354
350.747	1.43883
350.96	1.08165
351.173	1.41439
351.386	1.64565
351.6	1.40155
351.813	1.28158
352.026	2.01179
352.239	0.82366
352.452	1.44848
352.665	2.26369
352.878	1.50135
353.092	3.68128
353.305	2.34642
353.518	2.00898
353.731	1.2462
353.944	3.06053
354.157	1.1213
354.37	1.06359
354.583	0.8446
354.796	0.52717
355.009	2.65351
355.222	1.92894
355.435	1.71752
355.647	2.61831
355.86	0.8745
356.073	1.54193
356.286	1.38657
356.499	2.22453
356.712	2.02432
356.925	2.02989
357.138	2.4334
357.35	0.89795
357.563	1.41649
357.776	1.77817
357.989	1.22017
358.201	2.05143
358.414	1.55373
358.627	2.55848
358.84	1.39986
359.052	0.89861
359.265	0.79019
359.478	2.51061
359.69	-0.33407
359.903	2.12399
360.116	2.1958
360.328	0.38177
360.541	2.15901
360.753	0.71847
360.966	1.0757
361.179	1.15656
361.391	1.13196
361.604	0.69131
361.816	1.12797
362.029	0.96201
362.241	0.89589
362.454	0.9546
362.666	0.80678
362.879	1.36325
363.091	1.25379
363.304	0.84832
363.516	1.33986
363.728	0.53666
363.941	1.91972
364.153	0.83953
364.366	-0.08593
364.578	0.62641
364.79	1.7961
365.003	1.2494
365.215	1.26336
365.427	1.77757
365.639	2.48567
365.852	1.84321
366.064	3.09372
366.276	1.08201
366.488	1.79365
366.701	1.1307
366.913	1.38662
367.125	1.22778
367.337	0.98336
367.549	1.11597
367.762	1.42481
367.974	1.68311
368.186	0.78107
368.398	2.36913
368.61	1.98342
368.822	1.93919
369.034	1.56351
369.246	2.0083
369.458	3.316
369.67	0.85152
369.882	2.90556
370.094	0.16841
370.306	2.85366
370.518	1.25692
370.73	0.8314
370.942	0.93917
371.154	1.25907
371.366	1.095
371.578	1.64914
371.79	0.70866
372.002	2.46453
372.214	2.60322
372.425	1.7524
372.637	2.33857
372.849	1.51308
373.061	-0.00748
373.273	1.77825
373.484	1.75106
373.696	2.00033
373.908	-0.06938
374.12	2.12278
374.331	1.76221
374.543	0.88227
374.755	0.66134
374.967	1.7249
375.178	1.945
375.39	1.4606
375.602	1.56863
375.813	0.5971
376.025	0.35073
376.236	1.34812
376.448	1.50479
376.66	0.86932
376.871	0.93616
377.083	2.16755
377.294	2.11895
377.506	1.01103
377.717	2.17897
377.929	1.51532
378.14	0.77043
378.352	1.79032
378.563	1.68134
378.775	2.2965
378.986	0.83851
379.197	1.41526
379.409	1.07919
379.62	1.92115
379.832	1.66419
380.043	1.04785
380.254	1.331
380.466	0.51543
380.677	3.53451
380.888	2.93927
381.1	3.25561
381.311	2.88341
381.522	1.21483
381.733	3.50277
381.945	1.18018
382.156	1.47073
382.367	1.06176
382.578	3.28069
382.789	3.21023
383.001	1.10805
383.212	2.20132
383.423	2.37405
383.634	2.01528
383.845	1.63878
384.056	1.01017
384.267	1.20445
384.478	1.16748
384.69	0.50894
384.901	1.63719
385.112	1.66358
385.323	2.36722
385.534	1.59755
385.745	1.57849
385.956	1.81788
386.167	0.74173
386.378	1.61408
386.588	0.33172
386.799	0.80648
387.01	0.17888
387.221	2.00505
387.432	1.22079
387.643	2.69026
387.854	1.28199
388.065	1.06393
388.275	1.17528
388.486	0.98813
388.697	1.2575
388.908	1.0381
389.119	2.23568
389.329	2.47668
389.54	1.28761
389.751	1.73947
389.962	2.16534
390.172	1.57467
390.383	0.91658
390.594	0.83203
390.804	0.81094
391.015	0.72709
391.226	1.37665
391.436	1.58984
391.647	1.60114
391.858	1.65282
392.068	0.28443
392.279	0.38816
392.489	1.14068
392.7	2.08995
392.91	0.45447
393.121	0.80089
393.331	1.66026
393.542	1.86333
393.752	1.53574
393.963	1.19829
394.173	1.13323
394.384	1.64105
394.594	1.25207
394.804	0.51916
395.015	1.28106
395.225	1.55934
395.436	0.4481
395.646	1.70313
395.856	0.59637
396.067	0.42846
396.277	1.94829
396.487	1.38734
396.697	1.22581
396.908	1.74329
397.118	1.73799
397.328	1.43353
397.538	2.12395
397.749	0.79818
397.959	1.76553
398.169	1.85
398.379	0.44969
398.589	1.7694
398.8	1.30779
399.01	0.97122
399.22	1.32904
399.43	2.92953
399.64	0.97185
399.85	1.73156
400.06	1.1695
400.27	0.82605
400.48	1.47454
400.69	2.3388
400.9	0.99101
401.11	0.98536
401.32	2.14223
401.53	0.9517
401.74	2.50154
401.95	1.97289
402.16	0.60314
402.37	1.43543
402.58	0.9664
402.79	1.86409
403	1.83075
403.209	0.89457
403.419	1.91392
403.629	0.96871
403.839	1.80031
404.049	1.82041
404.258	0.83182
404.468	0.68088
404.678	1.71334
404.888	1.76982
405.097	0.7528
405.307	1.30585
405.517	1.63527
405.727	1.59637
405.936	1.07641
406.146	1.59923
406.356	2.16601
406.565	1.36918
406.775	0.91633
406.984	0.89671
407.194	2.801
407.404	1.40868
407.613	1.65049
407.823	1.97372
408.032	2.25074
408.242	2.1792
408.451	1.1495
408.661	1.41931
408.87	2.66665
409.08	1.17591
409.289	1.82685
409.499	1.65124
409.708	1.7017
409.918	0.31908
410.127	1.57663
410.336	2.57525
410.546	2.16718
410.755	1.29709
410.964	1.33623
411.174	0.92094
411.383	1.97304
411.592	1.8062
411.802	0.91293
412.011	2.31932
412.22	1.63777
412.429	2.83808
412.639	2.68331
412.848	2.54249
413.057	2.85651
413.266	2.55109
413.475	1.73653
413.685	2.47089
413.894	2.36225
414.103	2.52965
414.312	2.31318
414.521	1.7539
414.73	1.95327
414.939	3.27281
415.148	2.20013
415.357	2.09393
415.566	1.81605
415.776	1.67512
415.985	1.51268
416.194	2.47395
416.403	3.08861
416.611	1.17786
416.82	1.60643
417.029	2.11512
417.238	1.51392
417.447	1.47065
417.656	1.79283
417.865	1.53067
418.074	2.05845
418.283	2.18732
418.492	2.95703
418.7	2.9507
418.909	3.82815
419.118	2.55
419.327	3.17519
419.536	2.80569
419.744	2.46885
419.953	3.7817
420.162	3.76011
420.371	2.77581
420.579	2.86067
420.788	3.95131
420.997	4.06735
421.205	4.0137
421.414	3.65232
421.623	3.93127
421.831	3.39065
422.04	4.10818
422.249	3.2099
422.457	3.70661
422.666	3.06677
422.874	4.16486
423.083	4.18874
423.291	4.19046
423.5	3.92749
423.708	4.14319
423.917	4.73134
424.125	3.90728
424.334	3.79117
424.542	5.73347
424.751	4.81146
424.959	4.48879
425.167	5.10099
425.376	4.88371
425.584	3.97411
425.793	4.15865
426.001	3.12661
426.209	3.93675
426.418	2.80658
426.626	2.71832
426.834	2.56269
427.042	2.8901
427.251	2.41887
427.459	3.38422
427.667	2.82485
