Data from WindowProjectSample_Transmission__13__00013__05062618017620936.txt Node

Date: Mon May 05 16:59:22 EDT 2025
User: jessi
Spectrometer: SR400872
Trigger mode: 0
Integration Time (sec): 5.000010E-1
Scans to average: 20
Electric dark correction enabled: true
Nonlinearity correction enabled: true
Boxcar width: 0
XAxis mode: Wavelengths
Number of Pixels in Spectrum: 3648
>>>>>Begin Spectral Data<<<<<
184.909	20504.66087
185.132	-5039.15438
185.355	-2982.44769
185.578	-17774.87982
185.801	1395.13297
186.024	9904.50858
186.247	-1843.0343
186.47	1223.37726
186.693	425.73918
186.916	285.27225
187.139	-3728.25566
187.362	3323.04033
187.585	4043.92222
187.808	3525.72958
188.031	-40.45579
188.254	-49748.32522
188.476	-1766.64279
188.699	6148.31339
188.922	615.91208
189.145	-15695.45532
189.368	-699.40499
189.591	-1318.91042
189.813	3157.40575
190.036	-48196.88137
190.259	-848.16064
190.482	-4837.73525
190.705	6920.99105
190.927	-2642.74202
191.15	12983.1236
191.373	3452.60412
191.595	-9143.11621
191.818	-4040.62658
192.041	-7469.1487
192.263	-3517.00585
192.486	-765.90667
192.709	-4006.18019
192.931	8052.1807
193.154	-28263.16293
193.377	-2765.25496
193.599	-2564.07577
193.822	-9210.34899
194.044	-1929.2666
194.267	1207.35952
194.489	230.90791
194.712	-42338.84359
194.934	-31635.71883
195.157	1075.3171
195.379	1380.11903
195.602	-6720.93827
195.824	-1240.90367
196.047	-8817.50153
196.269	2690.38885
196.492	-6568.80896
196.714	29510.66478
196.936	-8578.07335
197.159	-1237.65663
197.381	1177.48386
197.604	425.95756
197.826	11795.38931
198.048	-11132.61141
198.271	-2848.86583
198.493	7645.11358
198.715	2364.44657
198.938	-464.01791
199.16	6779.22941
199.382	-102280.58514
199.604	2805.10741
199.827	-1039.25867
200.049	-2810.31311
200.271	13674.33617
200.493	1231.26851
200.715	-37071.88471
200.938	-5996.20563
201.16	-4170.53831
201.382	21030.49072
201.604	2271.4688
201.826	2235.84081
202.048	-1940.51081
202.27	-1884.42974
202.492	-35800.38919
202.715	2951.34501
202.937	-4585.43735
203.159	-6157.99869
203.381	1465.89417
203.603	6515.52282
203.825	6034.0507
204.047	2197.46283
204.269	-2812.3587
204.491	2113.99549
204.713	6203.95977
204.935	-460518.82124
205.156	1187.13918
205.378	-2899.10725
205.6	1709.6463
205.822	154834.84087
206.044	-943.09073
206.266	1604.20083
206.488	4624.54459
206.71	-5444.73428
206.932	1112.39098
207.153	11514.64098
207.375	-6826.89272
207.597	-39095.00639
207.819	-2822.2551
208.041	2428.48746
208.262	522.93235
208.484	711.81659
208.706	-803.05753
208.927	-863.95309
209.149	581.21955
209.371	-2949.63902
209.593	-224.07244
209.814	-844.67103
210.036	542.96273
210.258	-664.65581
210.479	1724.55384
210.701	1621.66462
210.922	3355.30611
211.144	-3864.38007
211.366	2026.33222
211.587	7393.19981
211.809	-7914.6401
212.03	2478.29772
212.252	447.90256
212.473	2094.46114
212.695	-6018.37083
212.916	2852.36828
213.138	-669.27326
213.359	3620.3099
213.581	5279.94178
213.802	-951.2467
214.024	1132.35308
214.245	2089.71659
214.466	2575.9912
214.688	-3096.43395
214.909	-1109.58177
215.131	-1668.5621
215.352	-3204.95948
215.573	14478.48274
215.795	5036.7763
216.016	5351.49537
216.237	826.06575
216.459	3567.53911
216.68	1833.22228
216.901	5015.53391
217.122	-3177.52599
217.344	-11750.96666
217.565	3408.06369
217.786	8986.63135
218.007	16591.61334
218.228	-745.88957
218.45	5817.48869
218.671	743.33308
218.892	35458.35816
219.113	1571.92984
219.334	-310.41742
219.555	8784.56128
219.776	3185.02574
219.997	21657.67393
220.219	2943.35131
220.44	-10044.42473
220.661	484.35715
220.882	1439.84406
221.103	-1080.74202
221.324	2412.96086
221.545	2235.9886
221.766	-8918.36437
221.987	886.57387
222.208	1582.84012
222.429	4296.7857
222.65	512.52706
222.87	19389.71676
223.091	727.89585
223.312	578.14161
223.533	1319.21387
223.754	1476.08251
223.975	1366.3326
224.196	1945.20518
224.417	1285.32803
224.637	571.23819
224.858	112.30921
225.079	1094.59199
225.3	681.26196
225.521	3747.51733
225.741	495.5363
225.962	522.34055
226.183	131.46672
226.404	669.69787
226.624	421.65056
226.845	604.0388
227.066	416.57659
227.286	249.37528
227.507	125.49649
227.728	117.48106
227.948	234.19873
228.169	74.52116
228.389	88.10397
228.61	45.9925
228.831	64.25712
229.051	2.95302
229.272	38.65715
229.492	57.14309
229.713	14.142
229.933	36.17345
230.154	30.1272
230.374	52.97803
230.595	38.47861
230.815	22.55384
231.036	38.83391
231.256	-9.669
231.477	67.13938
231.697	40.84981
231.917	39.87852
232.138	55.22887
232.358	104.9054
232.579	104.09408
232.799	21.3112
233.019	100.67409
233.24	113.70973
233.46	33.75271
233.68	66.6046
233.901	36.85322
234.121	28.11482
234.341	10.96668
234.561	-3.76945
234.782	19.16451
235.002	64.8805
235.222	-4.86885
235.442	63.40135
235.662	32.8875
235.883	62.63324
236.103	49.96212
236.323	38.41829
236.543	29.93252
236.763	38.69843
236.983	45.45034
237.203	40.19084
237.423	57.73199
237.643	85.61529
237.864	72.65234
238.084	18.36511
238.304	26.0364
238.524	43.55158
238.744	40.43644
238.964	72.90022
239.184	59.91068
239.404	65.45689
239.624	33.39002
239.843	60.42438
240.063	35.84773
240.283	22.57393
240.503	25.18166
240.723	25.4395
240.943	14.24212
241.163	20.45221
241.383	13.85884
241.603	7.87601
241.822	9.57852
242.042	6.09064
242.262	8.26398
242.482	9.77825
242.702	10.53372
242.921	2.86929
243.141	6.6472
243.361	6.26496
243.581	9.12768
243.8	7.39855
244.02	5.33279
244.24	9.45092
244.459	9.37182
244.679	17.70762
244.899	11.43934
245.118	13.29019
245.338	11.90172
245.558	13.69764
245.777	9.22186
245.997	9.89882
246.216	10.25248
246.436	6.44629
246.655	4.81328
246.875	3.35414
247.094	6.34417
247.314	2.01009
247.533	3.73794
247.753	4.32164
247.972	3.37634
248.192	1.25252
248.411	1.95728
248.631	3.54474
248.85	4.65315
249.07	3.8513
249.289	5.56199
249.508	4.67202
249.728	7.732
249.947	6.71401
250.166	8.69001
250.386	3.98985
250.605	6.82457
250.824	11.10578
251.044	7.56117
251.263	28.85562
251.482	14.17456
251.701	11.84786
251.921	-0.10878
252.14	3.76041
252.359	4.06269
252.578	9.77754
252.798	3.56881
253.017	8.82312
253.236	4.20785
253.455	5.99091
253.674	9.86159
253.893	5.12152
254.112	7.89889
254.331	10.95194
254.551	8.09824
254.77	3.44605
254.989	12.94215
255.208	9.64206
255.427	14.54346
255.646	11.63595
255.865	21.31022
256.084	8.87
256.303	11.29519
256.522	13.91079
256.741	3.29372
256.96	2.51164
257.179	8.72008
257.397	10.63431
257.616	5.36019
257.835	6.36611
258.054	15.52454
258.273	10.28828
258.492	10.87458
258.711	6.56478
258.93	3.11525
259.148	4.55991
259.367	4.43623
259.586	5.40076
259.805	2.29685
260.023	5.20941
260.242	3.86308
260.461	2.76059
260.68	1.22289
260.898	4.57386
261.117	1.38081
261.336	0.82009
261.554	3.41017
261.773	3.30834
261.992	0.87908
262.21	3.10293
262.429	3.51392
262.648	7.29195
262.866	7.96325
263.085	5.29806
263.303	4.74429
263.522	8.15361
263.74	8.70318
263.959	15.1609
264.178	7.27969
264.396	6.46324
264.615	4.74255
264.833	10.20691
265.051	9.02837
265.27	10.93418
265.488	10.77182
265.707	6.11194
265.925	10.78846
266.144	4.65468
266.362	5.59799
266.58	5.47444
266.799	5.06572
267.017	5.82962
267.235	5.45347
267.454	3.42712
267.672	1.68946
267.89	4.3243
268.109	4.13123
268.327	4.38995
268.545	0.98754
268.763	3.99895
268.982	1.344
269.2	4.13519
269.418	2.66258
269.636	1.84233
269.854	4.70701
270.073	3.16656
270.291	1.90461
270.509	1.59239
270.727	4.34164
270.945	7.21412
271.163	7.0365
271.381	1.59823
271.599	3.14504
271.817	5.34916
272.036	1.72892
272.254	3.13661
272.472	2.33331
272.69	2.50084
272.908	2.31589
273.126	4.42511
273.344	5.39011
273.562	1.88295
273.779	2.64282
273.997	3.85123
274.215	4.15351
274.433	2.94141
274.651	4.30154
274.869	4.63027
275.087	2.8773
275.305	4.03046
275.523	2.36011
275.74	2.65953
275.958	5.47933
276.176	8.1086
276.394	2.52526
276.612	3.06222
276.829	3.24498
277.047	2.60272
277.265	3.12312
277.483	3.54079
277.7	4.27429
277.918	3.44813
278.136	6.1295
278.353	2.9855
278.571	1.88551
278.789	4.39742
279.006	0.7904
279.224	2.82398
279.442	5.14915
279.659	3.67421
279.877	2.36711
280.094	5.8121
280.312	1.28184
280.529	3.40991
280.747	0.92418
280.964	2.71895
281.182	6.11589
281.399	2.5954
281.617	3.70245
281.834	2.40288
282.052	1.79249
282.269	3.11664
282.487	2.49289
282.704	2.06208
282.921	2.16198
283.139	3.21153
283.356	4.10378
283.574	3.79455
283.791	1.89649
284.008	5.60694
284.226	3.06539
284.443	3.18103
284.66	4.57922
284.877	3.55102
285.095	2.01497
285.312	1.63486
285.529	0.96151
285.746	0.78212
285.964	1.97426
286.181	1.30048
286.398	1.87507
286.615	2.70953
286.832	2.54652
287.05	0.56885
287.267	1.88595
287.484	1.81296
287.701	2.63452
287.918	2.63206
288.135	2.59143
288.352	1.21787
288.569	1.32558
288.786	2.43143
289.003	1.95243
289.22	3.01213
289.437	1.72434
289.654	2.90423
289.871	2.95606
290.088	2.88444
290.305	2.31611
290.522	1.75358
290.739	2.02181
290.956	3.12348
291.173	3.53341
291.39	3.44631
291.607	2.26672
291.824	1.75012
292.04	1.19823
292.257	2.82923
292.474	3.10289
292.691	1.88704
292.908	0.8975
293.125	1.69586
293.341	1.14749
293.558	4.92531
293.775	1.95609
293.992	2.12987
294.208	0.88795
294.425	1.21409
294.642	1.82033
294.858	2.60083
295.075	0.7144
295.292	1.93365
295.508	2.31725
295.725	4.07766
295.942	1.73397
296.158	1.31757
296.375	2.14459
296.591	1.64855
296.808	1.90974
297.024	2.11078
297.241	2.47638
297.458	2.6295
297.674	0.40368
297.891	2.08647
298.107	1.78087
298.323	1.35657
298.54	3.38869
298.756	1.68429
298.973	0.96048
299.189	3.58457
299.406	1.66061
299.622	3.30354
299.838	3.26774
300.055	3.06708
300.271	1.17579
300.487	1.62542
300.704	1.92312
300.92	1.21247
301.136	4.89978
301.353	3.24082
301.569	2.48861
301.785	2.83483
302.001	3.24974
302.218	2.92034
302.434	3.00844
302.65	1.56531
302.866	2.21879
303.083	4.7682
303.299	4.62436
303.515	2.90693
303.731	3.10122
303.947	1.52076
304.163	2.28329
304.379	2.88519
304.595	3.32021
304.812	2.11773
305.028	2.16889
305.244	2.64511
305.46	3.42568
305.676	3.80208
305.892	4.10029
306.108	3.48251
306.324	2.51882
306.54	4.70059
306.756	3.36308
306.972	3.31485
307.187	2.92897
307.403	4.10688
307.619	2.55008
307.835	3.97904
308.051	4.49898
308.267	2.06688
308.483	4.12349
308.699	3.48555
308.914	3.08459
309.13	2.94593
309.346	1.82264
309.562	2.32438
309.778	1.9276
309.993	3.66979
310.209	3.18798
310.425	2.07955
310.641	3.05815
310.856	2.27366
311.072	2.14923
311.288	3.20804
311.503	3.42989
311.719	1.70459
311.935	1.67986
312.15	3.71638
312.366	3.3484
312.581	3.57332
312.797	3.29115
313.013	4.03151
313.228	2.70185
313.444	3.00349
313.659	2.58578
313.875	3.71199
314.09	3.08081
314.306	4.44107
314.521	3.87783
314.737	4.04303
314.952	3.21308
315.168	3.32197
315.383	3.60264
315.599	2.91129
315.814	2.99983
316.029	3.97693
316.245	2.25526
316.46	1.84541
316.675	4.32498
316.891	4.82685
317.106	6.02235
317.321	3.57195
317.537	3.94777
317.752	4.17005
317.967	4.25388
318.183	2.517
318.398	2.99659
318.613	4.02399
318.828	4.66929
319.043	4.09554
319.259	3.17177
319.474	3.46877
319.689	4.45109
319.904	1.93447
320.119	4.10585
320.334	3.68395
320.549	3.13014
320.765	4.40735
320.98	3.69319
321.195	3.81761
321.41	3.45323
321.625	4.05364
321.84	5.10337
322.055	4.96037
322.27	2.64053
322.485	2.45632
322.7	3.82229
322.915	4.29149
323.13	2.85672
323.345	5.03346
323.56	4.42483
323.775	4.05231
323.989	3.73145
324.204	3.79594
324.419	4.56194
324.634	2.42086
324.849	3.44113
325.064	6.69075
325.279	4.5943
325.493	4.02465
325.708	4.30573
325.923	2.90197
326.138	3.28034
326.352	5.08608
326.567	4.48991
326.782	3.08639
326.997	3.16174
327.211	4.13731
327.426	3.89635
327.641	3.26486
327.855	2.31514
328.07	4.22359
328.285	5.16127
328.499	3.15508
328.714	3.73231
328.928	4.18172
329.143	3.52047
329.358	4.57918
329.572	4.56069
329.787	5.01934
330.001	5.92483
330.216	2.53964
330.43	5.57355
330.645	5.01967
330.859	4.39141
331.074	2.93259
331.288	3.81931
331.503	4.95946
331.717	2.77798
331.931	3.78716
332.146	3.88882
332.36	5.34985
332.575	4.02307
332.789	3.93017
333.003	3.96648
333.218	4.24344
333.432	3.14985
333.646	4.60203
333.86	5.25541
334.075	5.28067
334.289	3.29309
334.503	2.86821
334.717	4.25789
334.932	4.16194
335.146	4.61199
335.36	3.15926
335.574	4.40688
335.788	4.1161
336.003	4.50348
336.217	4.4323
336.431	4.24154
336.645	3.24931
336.859	2.61042
337.073	3.57797
337.287	3.93611
337.501	2.70186
337.715	4.12279
337.929	4.62551
338.143	2.86539
338.357	3.69634
338.571	3.22533
338.785	4.44536
338.999	3.41253
339.213	3.43584
339.427	2.69884
339.641	5.06241
339.855	3.4359
340.069	3.20097
340.283	4.52319
340.497	5.36143
340.711	4.20009
340.924	3.73908
341.138	2.92617
341.352	2.68987
341.566	3.91986
341.78	2.63543
341.993	3.47594
342.207	3.03066
342.421	4.11911
342.635	3.66933
342.848	3.45367
343.062	1.86163
343.276	3.22519
343.49	5.41982
343.703	3.1284
343.917	4.78131
344.131	4.71416
344.344	3.09593
344.558	3.47008
344.771	2.74639
344.985	5.16131
345.199	5.23282
345.412	4.11221
345.626	4.11152
345.839	2.4837
346.053	2.85321
346.266	2.98634
346.48	4.45438
346.693	4.19482
346.907	4.07537
347.12	3.09508
347.334	4.11371
347.547	4.11885
347.76	3.72232
347.974	4.7702
348.187	4.09178
348.401	3.4993
348.614	3.07311
348.827	3.47343
349.041	4.14435
349.254	2.42178
349.467	3.44766
349.681	2.90836
349.894	3.17495
350.107	4.67916
350.32	5.33353
350.534	2.64973
350.747	3.42569
350.96	3.07559
351.173	3.2456
351.386	3.54509
351.6	3.27202
351.813	3.31189
352.026	3.4487
352.239	2.72316
352.452	3.55483
352.665	4.65339
352.878	3.65209
353.092	5.45637
353.305	4.37815
353.518	3.96103
353.731	2.98456
353.944	4.74433
354.157	3.47381
354.37	3.33299
354.583	2.87986
354.796	2.64699
355.009	4.53737
355.222	4.02105
355.435	3.78367
355.647	4.61178
355.86	3.18754
356.073	4.00033
356.286	3.31878
356.499	4.35215
356.712	4.20724
356.925	4.34904
357.138	4.45794
357.35	3.1232
357.563	3.55323
357.776	4.00953
357.989	3.74911
358.201	4.25573
358.414	4.19986
358.627	4.92631
358.84	3.72267
359.052	2.91188
359.265	3.23509
359.478	4.66467
359.69	2.07243
359.903	4.48331
360.116	4.69768
360.328	2.67737
360.541	4.52448
360.753	3.22885
360.966	3.60768
361.179	3.72843
361.391	3.66263
361.604	3.41427
361.816	3.70078
362.029	3.62934
362.241	3.40979
362.454	3.67093
362.666	3.30768
362.879	4.31136
363.091	3.73278
363.304	3.56996
363.516	3.68219
363.728	3.22866
363.941	4.24863
364.153	3.88983
364.366	2.47252
364.578	3.0191
364.79	3.96175
365.003	3.86354
365.215	3.39832
365.427	4.20203
365.639	4.4612
365.852	3.84666
366.064	5.29532
366.276	3.66002
366.488	4.07372
366.701	3.67038
366.913	3.71842
367.125	3.59336
367.337	3.21584
367.549	3.42711
367.762	3.84072
367.974	3.8098
368.186	3.48687
368.398	4.41049
368.61	4.13406
368.822	4.25571
369.034	3.68103
369.246	4.28673
369.458	5.90094
369.67	3.13624
369.882	5.08463
370.094	2.52148
370.306	4.92715
370.518	3.48208
370.73	3.35971
370.942	3.32959
371.154	3.78478
371.366	3.52004
371.578	4.16224
371.79	3.47012
372.002	4.64365
372.214	5.30857
372.425	3.83974
372.637	4.8974
372.849	4.17242
373.061	2.50075
373.273	4.17927
373.484	4.04716
373.696	4.52438
373.908	2.42311
374.12	4.75441
374.331	4.15045
374.543	3.39111
374.755	3.2094
374.967	3.9583
375.178	4.44005
375.39	3.47704
375.602	3.97446
375.813	2.88999
376.025	3.21413
376.236	4.06339
376.448	4.15645
376.66	3.67511
376.871	3.70211
377.083	4.84024
377.294	5.177
377.506	3.65194
377.717	4.93406
377.929	4.16887
378.14	3.65039
378.352	4.21371
378.563	4.34494
378.775	4.89388
378.986	3.33639
379.197	3.92392
379.409	3.38344
379.62	4.43609
379.832	4.31317
380.043	3.77474
380.254	3.99306
380.466	3.21117
380.677	5.8918
380.888	5.37866
381.1	5.73924
381.311	5.80432
381.522	4.13716
381.733	5.97751
381.945	4.01179
382.156	3.98602
382.367	3.58864
382.578	5.93532
382.789	5.90373
383.001	3.62748
383.212	5.16936
383.423	5.17593
383.634	4.92998
383.845	4.72181
384.056	3.83241
384.267	4.24627
384.478	4.17791
384.69	3.39699
384.901	4.39862
385.112	4.27522
385.323	5.24851
385.534	4.41478
385.745	4.41016
385.956	4.29431
386.167	3.57393
386.378	4.5512
386.588	3.58195
386.799	3.70566
387.01	3.20996
387.221	4.72219
387.432	4.11851
387.643	5.32658
387.854	3.99459
388.065	3.99792
388.275	4.0187
388.486	3.80971
388.697	4.08801
388.908	3.85984
389.119	4.98454
389.329	5.14952
389.54	4.21135
389.751	4.44451
389.962	5.0272
390.172	4.35787
390.383	4.00618
390.594	3.73614
390.804	3.81479
391.015	3.90531
391.226	4.39463
391.436	4.63378
391.647	4.51874
391.858	4.66897
392.068	3.34012
392.279	3.60469
392.489	4.47079
392.7	5.00774
392.91	3.8557
393.121	3.78579
393.331	4.56141
393.542	5.02443
393.752	4.67319
393.963	4.60553
394.173	4.48748
394.384	4.58908
394.594	4.36012
394.804	3.66228
395.015	4.49596
395.225	4.75142
395.436	3.80685
395.646	4.57438
395.856	3.98977
396.067	3.44743
396.277	4.85569
396.487	4.59202
396.697	4.55487
396.908	4.77523
397.118	4.6411
397.328	4.517
397.538	4.93246
397.749	3.82799
397.959	4.92805
398.169	4.69445
398.379	3.54631
398.589	4.79595
398.8	4.4962
399.01	4.46814
399.22	4.24423
399.43	5.77791
399.64	4.45592
399.85	4.83561
400.06	4.38199
400.27	3.87263
400.48	4.35134
400.69	5.30778
400.9	4.11603
401.11	3.88236
401.32	4.83639
401.53	4.21007
401.74	5.38068
401.95	4.75843
402.16	4.06777
402.37	4.66383
402.58	4.10949
402.79	4.77087
403	5.0882
403.209	4.07439
403.419	5.14489
403.629	3.96744
403.839	5.15347
404.049	5.05589
404.258	4.26362
404.468	4.15754
404.678	4.96817
404.888	5.39766
405.097	4.33332
405.307	4.57967
405.517	4.96383
405.727	4.87479
405.936	4.41818
406.146	4.83006
406.356	5.43987
406.565	4.63854
406.775	4.37655
406.984	4.31481
407.194	5.67517
407.404	4.64752
407.613	5.03563
407.823	5.14037
408.032	5.31587
408.242	5.22682
408.451	4.36468
408.661	4.56373
408.87	5.74428
409.08	4.20113
409.289	4.91341
409.499	4.87084
409.708	4.8425
409.918	3.5843
410.127	4.91845
410.336	5.71391
410.546	5.28197
410.755	4.55548
410.964	4.58622
411.174	4.25816
411.383	5.11604
411.592	5.12352
411.802	4.33968
412.011	5.32558
412.22	4.70247
412.429	5.99008
412.639	5.65462
412.848	5.34068
413.057	5.72293
413.266	5.55926
413.475	4.90511
413.685	5.24744
413.894	5.47002
414.103	5.61212
414.312	5.44112
414.521	4.82776
414.73	4.99664
414.939	6.26816
415.148	5.34289
415.357	5.15202
415.566	4.91716
415.776	4.80768
415.985	4.85263
416.194	5.65689
416.403	6.33211
416.611	4.39186
416.82	4.97272
417.029	5.39433
417.238	4.96724
417.447	4.78167
417.656	5.19983
417.865	4.90776
418.074	5.31757
418.283	5.39359
418.492	5.9518
418.7	5.77753
418.909	6.64612
419.118	5.84455
419.327	6.11401
419.536	5.99437
419.744	5.93947
419.953	6.98851
420.162	7.12145
420.371	6.46531
420.579	6.77257
420.788	7.59497
420.997	7.63658
421.205	7.92344
421.414	7.69279
421.623	7.79729
421.831	7.48919
422.04	8.04757
422.249	7.259
422.457	7.5628
422.666	6.88834
422.874	7.73201
423.083	7.72382
423.291	7.75075
423.5	7.58413
423.708	7.86717
423.917	8.237
424.125	7.88462
424.334	7.65392
424.542	9.23985
424.751	8.79219
424.959	8.42426
425.167	8.69578
425.376	8.48854
425.584	7.47695
425.793	7.53157
426.001	6.67767
426.209	7.03857
426.418	6.05074
426.626	5.88846
426.834	5.77888
