Data from WindowProjectSample_Transmission__25__00025.txt Node

Date: Sat May 03 15:23:29 EDT 2025
User: jessi
Spectrometer: SR400872
Trigger mode: 0
Integration Time (sec): 5.000010E-1
Scans to average: 6
Electric dark correction enabled: true
Nonlinearity correction enabled: true
Boxcar width: 0
XAxis mode: Wavelengths
Number of Pixels in Spectrum: 3648
>>>>>Begin Spectral Data<<<<<
184.909	18416.43663
185.132	2653.55225
185.355	23866.0877
185.578	-8141.85218
185.801	556.5471
186.024	-1514.62729
186.247	924.41452
186.47	1813.71441
186.693	-362.4207
186.916	-2714.49667
187.139	-2524.80185
187.362	1809.50448
187.585	2780.60517
187.808	-3336.24504
188.031	735.55476
188.254	-1368.60483
188.476	-774.16327
188.699	2351.93203
188.922	-818.86067
189.145	-10061.36142
189.368	-407.02541
189.591	-1047.17569
189.813	-1778.27239
190.036	1311.88345
190.259	1817.0117
190.482	558.32491
190.705	10794.30086
190.927	-1093.57285
191.15	3613.31806
191.373	2382.52794
191.595	-2308.01186
191.818	2471.80711
192.041	-304.43281
192.263	2944.79886
192.486	2149.84815
192.709	-5640.64564
192.931	2829.70526
193.154	-6282.67112
193.377	195662.90958
193.599	1457.01053
193.822	1911.63467
194.044	-1977.79605
194.267	470.56811
194.489	-336.18
194.712	1423.98595
194.934	3485.44718
195.157	-13452.88185
195.379	863.56393
195.602	2193.00945
195.824	2058.00938
196.047	2559.22863
196.269	3131.3619
196.492	3412.43958
196.714	2890.54951
196.936	1215.9458
197.159	1428.82648
197.381	-2621.35595
197.604	-1067.0075
197.826	6502.39056
198.048	3140.25222
198.271	4249.26237
198.493	2103.89107
198.715	-5923.24594
198.938	-738.81858
199.16	1882.58933
199.382	1534.72919
199.604	-621.66101
199.827	9744.7817
200.049	1025.06936
200.271	-3210.86995
200.493	-51631.21275
200.715	2298.46354
200.938	6736.10107
201.16	-7523.86782
201.382	-3108.63802
201.604	-1907.74645
201.826	7021.4138
202.048	1000.89396
202.27	-17558.01578
202.492	4658.22908
202.715	-1175.89348
202.937	4864.47281
203.159	-2424.02556
203.381	918.57639
203.603	-3744.26115
203.825	-3188.46696
204.047	3450.89974
204.269	-2451.85703
204.491	2362.53312
204.713	1884.49233
204.935	15607.6714
205.156	1837.71464
205.378	-8025.56871
205.6	-4502.41249
205.822	9322.5195
206.044	-660.99314
206.266	4317.94074
206.488	1109.38956
206.71	29108.45278
206.932	2559.80961
207.153	-4741.43981
207.375	-1880.39251
207.597	8776.44193
207.819	4432.43609
208.041	2400.16227
208.262	-2674.17869
208.484	-1113.91974
208.706	-2646.68083
208.927	28011.26666
209.149	994.39497
209.371	-6313.53047
209.593	1654.45134
209.814	4486.93966
210.036	-2035.66377
210.258	-5365.13426
210.479	-1398.38366
210.701	1002.02477
210.922	6951.8509
211.144	-1191.1977
211.366	-6282.30345
211.587	-603.7252
211.809	9616.27515
212.03	-1468.03327
212.252	-2329.88161
212.473	809.67546
212.695	-2369.83963
212.916	3216.29451
213.138	3686.24119
213.359	-1859.9567
213.581	7008.59835
213.802	-1930.35409
214.024	17092.35131
214.245	-3466.24626
214.466	-575.32195
214.688	1666.7507
214.909	943.84805
215.131	-92307.34316
215.352	1506.26271
215.573	2552.29505
215.795	3117.30358
216.016	4317.64118
216.237	-601.75809
216.459	6848.86986
216.68	106954.86827
216.901	-89355.05054
217.122	2087.99151
217.344	6123.00183
217.565	-59379.75926
217.786	1514.29636
218.007	1997.76769
218.228	-1094.71403
218.45	-1299.93191
218.671	-1253.47375
218.892	1153.52
219.113	-18498.90088
219.334	-208.19551
219.555	-5982.26622
219.776	1770.74851
219.997	3669.81463
220.219	1013.08815
220.44	2647.87629
220.661	-3203.71689
220.882	3312.79384
221.103	-1297.72507
221.324	969.5452
221.545	2279.86489
221.766	-5975.67812
221.987	4433.07603
222.208	-1912.73848
222.429	3475.16915
222.65	-125.92674
222.87	-631.57432
223.091	8128.67051
223.312	2736.83387
223.533	6052.81666
223.754	1878.40933
223.975	1523.93455
224.196	-11763.06437
224.417	1006.29161
224.637	1025.30169
224.858	-634.4821
225.079	6691.42286
225.3	585.16185
225.521	2094.69875
225.741	1461.54044
225.962	739.17229
226.183	237.46716
226.404	677.34059
226.624	602.19452
226.845	333.86186
227.066	431.88503
227.286	200.44829
227.507	90.55463
227.728	85.26704
227.948	129.93579
228.169	39.31435
228.389	46.19972
228.61	25.58265
228.831	37.86476
229.051	2.7317
229.272	23.09215
229.492	32.11634
229.713	9.23696
229.933	23.10089
230.154	20.02097
230.374	31.63926
230.595	25.28878
230.815	16.15936
231.036	24.54685
231.256	-3.23398
231.477	44.34617
231.697	27.08949
231.917	24.66241
232.138	37.73549
232.358	76.31168
232.579	66.10785
232.799	13.27329
233.019	61.52406
233.24	81.06801
233.46	23.14449
233.68	41.15373
233.901	33.3462
234.121	16.20375
234.341	10.05661
234.561	-1.08954
234.782	17.01899
235.002	48.17901
235.222	-0.8937
235.442	38.99754
235.662	22.41054
235.883	44.3201
236.103	39.49396
236.323	28.94738
236.543	20.04014
236.763	28.30288
236.983	27.89618
237.203	30.63843
237.423	41.77923
237.643	65.75292
237.864	54.58274
238.084	14.59834
238.304	23.40081
238.524	38.56209
238.744	26.13448
238.964	47.83151
239.184	43.25513
239.404	46.58637
239.624	25.63748
239.843	42.85019
240.063	24.91007
240.283	16.46646
240.503	16.67499
240.723	17.64431
240.943	9.38648
241.163	13.82278
241.383	10.40248
241.603	4.88099
241.822	6.53804
242.042	4.84988
242.262	5.82452
242.482	7.03936
242.702	8.44754
242.921	2.59892
243.141	5.96192
243.361	4.55228
243.581	7.65189
243.8	6.5705
244.02	3.9511
244.24	7.9494
244.459	7.95326
244.679	15.13356
244.899	9.15989
245.118	10.56832
245.338	8.6959
245.558	11.21153
245.777	6.49023
245.997	7.60551
246.216	8.07183
246.436	4.5972
246.655	3.09228
246.875	2.51672
247.094	4.85101
247.314	1.6326
247.533	2.82621
247.753	3.76435
247.972	2.63111
248.192	1.24656
248.411	2.11746
248.631	3.25235
248.85	3.96178
249.07	2.72166
249.289	5.68735
249.508	3.79959
249.728	6.04343
249.947	6.67424
250.166	6.82283
250.386	3.96745
250.605	5.70181
250.824	7.89674
251.044	6.53594
251.263	20.98105
251.482	10.83018
251.701	9.94825
251.921	0.26754
252.14	3.18342
252.359	3.70833
252.578	8.75331
252.798	2.85358
253.017	7.53636
253.236	4.34257
253.455	4.94888
253.674	9.89722
253.893	4.65019
254.112	6.34748
254.331	9.79147
254.551	8.6162
254.77	4.05055
254.989	11.5504
255.208	10.45101
255.427	11.83005
255.646	11.18392
255.865	18.47982
256.084	7.30085
256.303	8.34154
256.522	11.08501
256.741	2.79992
256.96	3.58742
257.179	7.82233
257.397	8.63112
257.616	4.58353
257.835	4.74276
258.054	11.68754
258.273	7.59912
258.492	9.15928
258.711	5.18131
258.93	2.58519
259.148	3.21281
259.367	3.43588
259.586	4.47674
259.805	2.0276
260.023	4.36663
260.242	3.25921
260.461	2.43489
260.68	1.47897
260.898	3.84179
261.117	1.22553
261.336	1.04786
261.554	3.41224
261.773	3.03765
261.992	0.71818
262.21	3.31077
262.429	3.86636
262.648	6.0612
262.866	6.82714
263.085	4.25503
263.303	4.24599
263.522	7.76794
263.74	7.90769
263.959	13.10389
264.178	6.61427
264.396	5.84924
264.615	3.51791
264.833	10.01579
265.051	8.61169
265.27	8.53543
265.488	9.01304
265.707	5.63755
265.925	9.41373
266.144	4.16486
266.362	5.66336
266.58	5.13832
266.799	4.35232
267.017	5.23599
267.235	4.72898
267.454	3.02547
267.672	1.9731
267.89	3.74806
268.109	3.94641
268.327	3.86968
268.545	0.64168
268.763	3.7629
268.982	1.39366
269.2	4.72564
269.418	2.74341
269.636	2.12589
269.854	3.85904
270.073	3.00342
270.291	1.57646
270.509	1.35822
270.727	3.46597
270.945	6.2233
271.163	6.16272
271.381	1.37487
271.599	2.37729
271.817	4.58483
272.036	1.69796
272.254	2.77768
272.472	2.26623
272.69	2.21382
272.908	2.33418
273.126	3.80851
273.344	4.94696
273.562	1.92929
273.779	2.16292
273.997	3.48987
274.215	3.86966
274.433	2.81905
274.651	4.00762
274.869	3.99695
275.087	2.58187
275.305	4.11365
275.523	2.02321
275.74	2.93692
275.958	4.9625
276.176	6.94006
276.394	2.23852
276.612	2.90541
276.829	3.01161
277.047	2.34999
277.265	2.92189
277.483	3.45243
277.7	3.88663
277.918	3.05976
278.136	5.61768
278.353	2.89351
278.571	1.62376
278.789	4.49833
279.006	1.23638
279.224	2.49815
279.442	4.709
279.659	2.82648
279.877	2.14982
280.094	4.8717
280.312	0.96513
280.529	3.03942
280.747	0.6008
280.964	2.53918
281.182	5.1906
281.399	2.48837
281.617	3.35713
281.834	2.52327
282.052	2.1926
282.269	2.83722
282.487	2.51679
282.704	1.61756
282.921	2.14239
283.139	2.88938
283.356	3.94185
283.574	3.36637
283.791	1.76855
284.008	4.79174
284.226	2.67071
284.443	2.82856
284.66	3.54931
284.877	2.93159
285.095	1.92625
285.312	1.55243
285.529	1.03606
285.746	0.71188
285.964	1.93241
286.181	1.21501
286.398	1.80874
286.615	2.4393
286.832	2.48225
287.05	0.74407
287.267	1.73306
287.484	1.85994
287.701	2.6222
287.918	2.37782
288.135	2.65119
288.352	1.09372
288.569	1.33849
288.786	2.34787
289.003	1.59667
289.22	2.48969
289.437	1.62919
289.654	2.68079
289.871	2.90042
290.088	2.66035
290.305	2.12765
290.522	1.55411
290.739	2.06891
290.956	2.84805
291.173	3.48345
291.39	3.20896
291.607	2.19814
291.824	1.70624
292.04	1.00649
292.257	2.67284
292.474	2.93701
292.691	1.76535
292.908	0.91148
293.125	1.79507
293.341	1.04359
293.558	4.6728
293.775	2.02466
293.992	2.04662
294.208	0.72886
294.425	1.27271
294.642	1.52692
294.858	2.2916
295.075	0.85661
295.292	1.79089
295.508	2.26839
295.725	3.40665
295.942	1.62925
296.158	1.26655
296.375	1.96944
296.591	1.48913
296.808	1.63023
297.024	1.78068
297.241	2.07379
297.458	2.21634
297.674	0.14376
297.891	1.69251
298.107	1.27992
298.323	1.11645
298.54	2.67064
298.756	1.18525
298.973	0.58651
299.189	2.66975
299.406	1.26781
299.622	2.74929
299.838	2.6144
300.055	2.52717
300.271	0.84079
300.487	1.04834
300.704	1.13609
300.92	0.81666
301.136	3.71869
301.353	2.59075
301.569	1.87301
301.785	2.15704
302.001	2.51088
302.218	2.41102
302.434	2.22295
302.65	0.80577
302.866	1.50823
303.083	3.75919
303.299	3.59741
303.515	1.95013
303.731	2.29254
303.947	0.91795
304.163	1.31174
304.379	2.09423
304.595	2.42875
304.812	1.41407
305.028	1.2303
305.244	1.79725
305.46	2.68296
305.676	2.89874
305.892	3.37323
306.108	2.36292
306.324	1.57322
306.54	3.80499
306.756	2.56991
306.972	2.44637
307.187	1.94089
307.403	3.29376
307.619	1.3931
307.835	2.95847
308.051	3.24138
308.267	0.84245
308.483	3.12595
308.699	2.38452
308.914	2.13483
309.13	1.93477
309.346	0.83579
309.562	1.26269
309.778	0.74243
309.993	2.49398
310.209	2.1496
310.425	0.88742
310.641	2.00288
310.856	1.25857
311.072	1.08357
311.288	1.8914
311.503	2.30141
311.719	0.59692
311.935	0.66144
312.15	2.50889
312.366	2.22679
312.581	2.54213
312.797	2.27255
313.013	2.76106
313.228	1.56168
313.444	2.03537
313.659	1.53061
313.875	2.46728
314.09	1.99166
314.306	3.10784
314.521	2.71607
314.737	2.54419
314.952	2.26701
315.168	2.11893
315.383	2.67208
315.599	1.83117
315.814	1.97941
316.029	2.68189
316.245	1.17699
316.46	0.64271
316.675	3.21668
316.891	3.87281
317.106	4.63901
317.321	2.6592
317.537	2.5956
317.752	2.98841
317.967	2.94054
318.183	1.4582
318.398	1.85859
318.613	2.98418
318.828	3.54588
319.043	2.66659
319.259	1.76866
319.474	2.47539
319.689	2.9701
319.904	0.69912
320.119	3.0302
320.334	2.45381
320.549	2.07531
320.765	3.38432
320.98	2.56339
321.195	3.03894
321.41	2.2176
321.625	2.81794
321.84	3.7991
322.055	4.07901
322.27	1.45645
322.485	1.22101
322.7	2.3508
322.915	3.2342
323.13	1.75684
323.345	3.74479
323.56	3.19928
323.775	3.12971
323.989	2.90498
324.204	2.42267
324.419	3.12598
324.634	1.26749
324.849	2.16825
325.064	4.6218
325.279	3.31696
325.493	2.84632
325.708	3.14344
325.923	1.72231
326.138	1.91279
326.352	3.69663
326.567	3.10459
326.782	1.98883
326.997	1.97106
327.211	2.83133
327.426	2.45711
327.641	2.24618
327.855	1.29685
328.07	3.00716
328.285	4.11412
328.499	2.05911
328.714	3.01774
328.928	2.98132
329.143	2.65169
329.358	3.48524
329.572	3.38886
329.787	4.0568
330.001	4.95891
330.216	1.1499
330.43	4.45658
330.645	3.77441
330.859	3.2572
331.074	1.94965
331.288	2.79038
331.503	4.25892
331.717	1.62136
331.931	2.61606
332.146	2.68106
332.36	4.49531
332.575	2.93413
332.789	2.73502
333.003	2.9812
333.218	3.39261
333.432	2.44875
333.646	3.4352
333.86	4.36338
334.075	4.18022
334.289	2.32538
334.503	1.73274
334.717	3.6159
334.932	2.91678
335.146	3.66662
335.36	2.12846
335.574	3.24219
335.788	3.14902
336.003	3.62028
336.217	3.72774
336.431	3.1383
336.645	2.46656
336.859	1.89045
337.073	2.84927
337.287	3.25722
337.501	1.94545
337.715	3.54997
337.929	3.44158
338.143	2.13713
338.357	2.89139
338.571	2.46589
338.785	3.76638
338.999	2.53974
339.213	2.80995
339.427	2.00823
339.641	4.2179
339.855	2.61403
340.069	2.19191
340.283	3.9274
340.497	4.32841
340.711	3.61271
340.924	3.02025
341.138	2.38419
341.352	1.99611
341.566	3.28562
341.78	2.13493
341.993	2.52426
342.207	2.51842
342.421	3.48479
342.635	3.41257
342.848	2.93121
343.062	1.11977
343.276	2.78771
343.49	5.02116
343.703	2.80536
343.917	4.26478
344.131	4.38454
344.344	2.68197
344.558	2.87517
344.771	2.27679
344.985	4.39834
345.199	4.99401
345.412	3.54724
345.626	3.847
345.839	1.967
346.053	2.54083
346.266	2.65377
346.48	4.03459
346.693	3.93397
346.907	3.97332
347.12	2.70213
347.334	3.58231
347.547	3.75556
347.76	3.46611
347.974	4.49052
348.187	3.78259
348.401	3.43941
348.614	2.59938
348.827	3.2796
349.041	3.85519
349.254	1.87469
349.467	3.37841
349.681	2.76093
349.894	2.78846
350.107	4.84707
350.32	5.37861
350.534	2.48808
350.747	3.40716
350.96	2.90211
351.173	3.22308
351.386	3.34819
351.6	3.20817
351.813	3.36016
352.026	3.61077
352.239	3.0813
352.452	3.29588
352.665	4.56513
352.878	3.52181
353.092	5.77047
353.305	4.30951
353.518	4.1211
353.731	2.81885
353.944	4.66942
354.157	3.34517
354.37	3.65248
354.583	2.81676
354.796	3.08017
355.009	4.70094
355.222	4.08453
355.435	4.15124
355.647	5.08406
355.86	3.46462
356.073	4.18858
356.286	3.75741
356.499	5.04755
356.712	4.86104
356.925	4.76224
357.138	5.01757
357.35	3.63821
357.563	4.06624
357.776	4.7122
357.989	4.50785
358.201	4.98672
358.414	4.66049
358.627	5.73338
358.84	4.40377
359.052	3.57588
359.265	3.98096
359.478	5.33734
359.69	2.52294
359.903	5.33034
360.116	5.51055
360.328	3.63072
360.541	5.48354
360.753	4.4052
360.966	4.54539
361.179	4.94982
361.391	4.69061
361.604	4.57584
361.816	4.84291
362.029	4.87423
362.241	4.55239
362.454	5.07166
362.666	4.50103
362.879	5.75441
363.091	4.94691
363.304	4.79216
363.516	4.98088
363.728	4.37223
363.941	5.58549
364.153	5.3827
364.366	3.69405
364.578	4.48436
364.79	5.72437
365.003	5.70404
365.215	4.98298
365.427	5.83633
365.639	6.13153
365.852	5.72372
366.064	6.6889
366.276	5.32454
366.488	5.723
366.701	5.3976
366.913	5.16827
367.125	5.5331
367.337	5.06189
367.549	5.23998
367.762	5.33254
367.974	5.72257
368.186	5.59279
368.398	6.62644
368.61	6.04153
368.822	6.02091
369.034	5.50524
369.246	6.72619
369.458	8.10122
369.67	5.1979
369.882	7.09766
370.094	4.32297
370.306	6.97333
370.518	5.77702
370.73	5.76621
370.942	5.85388
371.154	6.14838
371.366	6.27223
371.578	6.83983
371.79	6.31505
372.002	7.32822
372.214	8.12789
372.425	6.47468
372.637	7.77279
372.849	6.83269
373.061	5.01097
373.273	6.83497
373.484	7.14657
373.696	7.47397
373.908	5.08225
374.12	7.24135
374.331	7.49826
374.543	6.08381
374.755	6.24085
374.967	6.77862
375.178	7.93003
375.39	6.86021
375.602	7.21756
375.813	6.09138
376.025	6.65282
376.236	7.36949
376.448	7.64703
376.66	7.43801
376.871	7.52868
377.083	8.1747
377.294	8.91131
377.506	7.36086
377.717	8.70495
377.929	8.01341
378.14	7.69414
378.352	8.24725
378.563	8.59694
378.775	8.95581
378.986	7.25762
379.197	8.2068
379.409	7.20687
379.62	8.50972
379.832	8.23413
380.043	8.14638
380.254	8.56926
380.466	7.51945
380.677	10.23306
380.888	9.96091
381.1	10.59764
381.311	10.57292
381.522	9.01816
381.733	10.75008
381.945	8.60012
382.156	8.02789
382.367	8.53283
382.578	10.83958
382.789	11.25067
383.001	8.18562
383.212	10.2217
383.423	10.43745
383.634	9.69155
383.845	9.9456
384.056	8.81472
384.267	9.2754
384.478	9.33159
384.69	8.51425
384.901	9.85328
385.112	9.65215
385.323	10.98786
385.534	10.14395
385.745	10.13775
385.956	9.83674
386.167	9.17075
386.378	10.38229
386.588	9.34424
386.799	8.97868
387.01	8.98935
387.221	10.68722
387.432	10.22809
387.643	11.08448
387.854	10.13083
388.065	10.01063
388.275	10.10568
388.486	9.83948
388.697	10.40899
388.908	10.06665
389.119	11.11633
389.329	11.50044
389.54	10.66237
389.751	10.89592
389.962	11.39943
390.172	10.59881
390.383	10.79997
390.594	10.26244
390.804	10.23879
391.015	10.47254
391.226	11.08587
391.436	11.38052
391.647	11.27053
391.858	11.4444
392.068	10.01981
392.279	10.69897
392.489	11.62379
392.7	11.94872
392.91	10.94201
393.121	10.79579
393.331	11.63399
393.542	12.17869
393.752	12.06472
393.963	12.02506
394.173	12.02857
394.384	12.22261
394.594	11.68672
394.804	11.02356
395.015	11.74583
395.225	12.18584
395.436	11.21735
395.646	12.10051
395.856	11.84366
396.067	11.01787
396.277	12.39058
396.487	12.33048
396.697	12.54917
396.908	12.68797
397.118	12.55942
397.328	12.22678
397.538	12.7675
397.749	11.86027
397.959	12.96774
398.169	12.66203
398.379	11.45828
398.589	12.51575
398.8	12.72222
399.01	12.72457
399.22	12.33573
399.43	13.80711
399.64	12.50238
399.85	12.93889
400.06	12.8456
400.27	12.09796
400.48	12.7709
400.69	13.35887
400.9	12.51984
401.11	12.01427
401.32	13.22107
401.53	12.44918
401.74	13.75514
401.95	13.07788
402.16	12.70328
402.37	13.11491
402.58	12.7927
402.79	13.2511
403	13.48268
403.209	12.5236
403.419	13.82876
403.629	12.63753
403.839	13.96509
404.049	13.86579
404.258	12.99999
404.468	12.97782
404.678	14.05815
404.888	14.30369
405.097	13.53263
405.307	13.50847
405.517	14.19425
405.727	14.00897
405.936	13.33765
406.146	13.81881
406.356	14.63979
406.565	13.49669
406.775	13.54515
406.984	13.4986
407.194	15.32108
407.404	13.9296
407.613	14.3434
407.823	14.26994
408.032	14.79406
408.242	14.38217
408.451	13.48745
408.661	13.73663
408.87	14.95294
409.08	13.38193
409.289	14.19549
409.499	14.0684
409.708	14.05577
409.918	12.73147
410.127	14.24327
410.336	15.21175
410.546	14.67906
410.755	13.89422
410.964	13.97368
411.174	13.69689
411.383	14.6046
411.592	14.65244
411.802	13.83416
412.011	14.9151
412.22	14.18581
412.429	15.50331
412.639	15.62499
412.848	14.90429
413.057	15.84483
413.266	15.00855
413.475	14.45064
413.685	14.89894
413.894	15.18402
414.103	15.23642
414.312	14.9524
414.521	14.16084
414.73	14.85919
414.939	15.81661
415.148	15.00923
415.357	14.8191
415.566	14.8949
415.776	14.6032
415.985	14.67883
416.194	15.38046
416.403	16.05627
416.611	14.05035
416.82	14.62912
417.029	15.3206
417.238	14.73893
417.447	14.74587
417.656	15.17021
417.865	15.05279
418.074	15.68053
418.283	16.7678
418.492	18.09771
418.7	17.72692
418.909	19.86847
419.118	18.66476
419.327	19.35524
419.536	19.44303
419.744	19.97719
419.953	21.52168
420.162	22.03625
420.371	21.62691
420.579	22.9165
420.788	23.95529
420.997	24.12785
421.205	24.58221
421.414	24.2474
421.623	24.70716
421.831	23.85496
422.04	24.31412
422.249	23.10124
422.457	23.377
422.666	22.14726
422.874	23.24935
423.083	23.31068
423.291	23.49765
423.5	23.59356
423.708	24.42584
423.917	24.99358
424.125	24.17075
424.334	24.37672
424.542	26.37786
424.751	25.67909
424.959	25.13988
425.167	24.89992
