Data from WindowProjectSample_Transmission__20__00020__05212521763406255.txt Node

Date: Mon May 05 17:14:09 EDT 2025
User: jessi
Spectrometer: SR400872
Trigger mode: 0
Integration Time (sec): 5.000010E-1
Scans to average: 20
Electric dark correction enabled: true
Nonlinearity correction enabled: true
Boxcar width: 0
XAxis mode: Wavelengths
Number of Pixels in Spectrum: 3648
>>>>>Begin Spectral Data<<<<<
184.909	21010.64755
185.132	-5357.81283
185.355	-3024.28514
185.578	-18176.02315
185.801	1340.40094
186.024	10227.59493
186.247	-1670.26813
186.47	1067.29805
186.693	465.83466
186.916	345.46863
187.139	-3702.83766
187.362	3487.85784
187.585	4923.05403
187.808	3568.40143
188.031	-7.70142
188.254	-52616.26891
188.476	-1784.37806
188.699	6327.21852
188.922	631.53335
189.145	-14766.17342
189.368	-607.08939
189.591	-1356.47795
189.813	3011.10808
190.036	-51501.16697
190.259	-854.82657
190.482	-4462.64999
190.705	6995.30387
190.927	-2478.3543
191.15	13034.88556
191.373	3348.75935
191.595	-9006.68418
191.818	-4011.85662
192.041	-5582.43521
192.263	-3366.64504
192.486	-816.61599
192.709	-3795.66741
192.931	7564.69826
193.154	-28872.07922
193.377	-2731.26933
193.599	-2544.65477
193.822	-9169.94042
194.044	-1853.42661
194.267	1135.42022
194.489	305.82685
194.712	-41254.02807
194.934	-30948.79537
195.157	1205.77934
195.379	1471.52155
195.602	-7448.06309
195.824	-1318.29938
196.047	-8118.36066
196.269	2622.77626
196.492	-6512.45158
196.714	28290.23747
196.936	-8294.09959
197.159	-1109.29342
197.381	1229.58272
197.604	489.45362
197.826	12377.39643
198.048	-10204.17594
198.271	-2760.53057
198.493	7578.00512
198.715	2206.89714
198.938	-484.89755
199.16	6820.14123
199.382	-102487.50444
199.604	2717.85263
199.827	-1016.97164
200.049	-2892.39067
200.271	14095.87414
200.493	1192.6591
200.715	-37319.55631
200.938	-6054.11686
201.16	-4141.83112
201.382	20311.63142
201.604	2262.58269
201.826	2254.73906
202.048	-1741.61297
202.27	-1940.39429
202.492	-34884.54064
202.715	2958.69327
202.937	-4448.72346
203.159	-6193.92069
203.381	1433.23147
203.603	6845.30088
203.825	5916.3293
204.047	2240.61581
204.269	-2764.10126
204.491	2188.87371
204.713	5850.01502
204.935	-486568.36281
205.156	1101.1667
205.378	-2796.11455
205.6	1603.34723
205.822	153063.95298
206.044	-1054.42456
206.266	1609.51461
206.488	4665.80954
206.71	-5284.45481
206.932	1097.02814
207.153	11950.35325
207.375	-7118.65856
207.597	-36979.71756
207.819	-2768.31021
208.041	2440.22451
208.262	447.62466
208.484	743.13244
208.706	-825.91048
208.927	-853.51584
209.149	539.32464
209.371	-2904.17027
209.593	-283.20945
209.814	-774.12649
210.036	580.04267
210.258	-618.06035
210.479	1768.4816
210.701	1577.01313
210.922	3319.51029
211.144	-4015.4307
211.366	2075.58824
211.587	8164.29689
211.809	-8018.3718
212.03	2371.95708
212.252	456.79735
212.473	2116.71236
212.695	-6071.27198
212.916	2817.77635
213.138	-687.29231
213.359	3737.46694
213.581	5159.9165
213.802	-604.83573
214.024	1090.65257
214.245	2177.8328
214.466	3634.20407
214.688	-3112.39035
214.909	-1180.02842
215.131	-1766.39351
215.352	-3210.02888
215.573	14382.41043
215.795	5135.95828
216.016	5371.43414
216.237	811.43438
216.459	3565.6744
216.68	1851.98354
216.901	5106.64088
217.122	-2756.16713
217.344	-11426.14215
217.565	3500.5556
217.786	8922.95703
218.007	16069.77664
218.228	-715.34894
218.45	5544.92756
218.671	665.60207
218.892	37024.58315
219.113	1464.40528
219.334	-272.56478
219.555	9880.32242
219.776	3017.25074
219.997	22258.49373
220.219	2751.52299
220.44	-11068.06077
220.661	474.92041
220.882	1528.53455
221.103	-1000.92696
221.324	2194.7427
221.545	2283.39863
221.766	-8964.50964
221.987	842.87895
222.208	1711.80154
222.429	4313.57071
222.65	160.32315
222.87	17629.30794
223.091	716.80045
223.312	589.90346
223.533	1403.25092
223.754	1539.2102
223.975	1340.88901
224.196	2027.586
224.417	1318.59076
224.637	568.07288
224.858	103.3061
225.079	1059.71695
225.3	659.37369
225.521	3737.04637
225.741	482.15036
225.962	507.06599
226.183	135.48903
226.404	670.68625
226.624	400.25335
226.845	636.29313
227.066	424.46466
227.286	245.04711
227.507	126.47746
227.728	118.98405
227.948	235.35405
228.169	71.08595
228.389	85.0306
228.61	45.45116
228.831	62.91765
229.051	1.08386
229.272	37.04762
229.492	57.83772
229.713	11.80767
229.933	37.07375
230.154	30.0228
230.374	53.49502
230.595	36.50394
230.815	23.69173
231.036	37.13057
231.256	-9.11664
231.477	65.6132
231.697	35.9225
231.917	41.35959
232.138	56.10822
232.358	112.34231
232.579	104.47606
232.799	19.03301
233.019	99.63373
233.24	109.78316
233.46	37.81561
233.68	59.34187
233.901	43.78289
234.121	24.70285
234.341	12.92487
234.561	-2.11098
234.782	18.6881
235.002	66.35917
235.222	-3.90406
235.442	64.58038
235.662	30.8933
235.883	61.55717
236.103	47.79177
236.323	36.64122
236.543	28.21572
236.763	37.26424
236.983	41.16841
237.203	39.1811
237.423	59.33778
237.643	88.26971
237.864	73.83359
238.084	17.45905
238.304	25.23375
238.524	42.79304
238.744	38.97426
238.964	74.47744
239.184	61.53115
239.404	62.0474
239.624	32.75574
239.843	57.09027
240.063	33.89082
240.283	21.39077
240.503	25.42729
240.723	25.63875
240.943	14.03786
241.163	19.49266
241.383	14.68393
241.603	6.9978
241.822	9.75988
242.042	6.44137
242.262	8.17041
242.482	9.65302
242.702	10.63772
242.921	2.16785
243.141	6.54404
243.361	6.20687
243.581	9.01989
243.8	6.89296
244.02	5.01486
244.24	8.97045
244.459	8.72224
244.679	16.82778
244.899	11.05784
245.118	12.98889
245.338	11.81601
245.558	13.23005
245.777	7.72004
245.997	9.96005
246.216	10.34929
246.436	6.13159
246.655	4.69748
246.875	3.20509
247.094	6.39194
247.314	2.11628
247.533	3.65456
247.753	4.06787
247.972	3.19159
248.192	0.91618
248.411	1.80798
248.631	3.3488
248.85	4.66743
249.07	3.72968
249.289	5.89342
249.508	4.54165
249.728	7.32785
249.947	6.9244
250.166	8.92664
250.386	3.93096
250.605	6.95105
250.824	11.19862
251.044	7.346
251.263	28.39901
251.482	14.47527
251.701	11.77214
251.921	-0.47467
252.14	3.54633
252.359	4.11215
252.578	10.16565
252.798	3.3005
253.017	8.69714
253.236	4.01143
253.455	5.70752
253.674	10.52679
253.893	4.51964
254.112	7.15076
254.331	11.43665
254.551	8.2614
254.77	3.26013
254.989	12.91264
255.208	8.62436
255.427	15.10348
255.646	11.14682
255.865	21.7478
256.084	9.28031
256.303	10.65866
256.522	13.29731
256.741	2.56362
256.96	2.1426
257.179	7.72154
257.397	10.94798
257.616	6.02603
257.835	6.36226
258.054	14.77665
258.273	10.08254
258.492	11.23796
258.711	6.75811
258.93	3.25836
259.148	5.05836
259.367	4.6198
259.586	5.61722
259.805	2.40028
260.023	5.26166
260.242	3.87442
260.461	2.72084
260.68	1.21754
260.898	4.43003
261.117	1.3487
261.336	0.88357
261.554	3.54264
261.773	3.39544
261.992	0.76324
262.21	3.01282
262.429	3.42359
262.648	7.01739
262.866	7.85056
263.085	5.53594
263.303	4.66077
263.522	8.69564
263.74	8.77421
263.959	15.4751
264.178	6.72063
264.396	5.65245
264.615	4.39393
264.833	10.48606
265.051	8.79554
265.27	10.502
265.488	11.08553
265.707	6.2488
265.925	10.63995
266.144	4.59692
266.362	5.52585
266.58	5.33572
266.799	5.10874
267.017	5.87603
267.235	5.28624
267.454	3.07351
267.672	1.82423
267.89	3.97765
268.109	4.42131
268.327	4.32129
268.545	0.87885
268.763	4.06203
268.982	1.49745
269.2	3.99434
269.418	2.90612
269.636	1.8802
269.854	4.78134
270.073	2.90472
270.291	1.95286
270.509	1.67852
270.727	4.40381
270.945	7.32358
271.163	7.3469
271.381	1.38503
271.599	3.28302
271.817	5.34696
272.036	1.5913
272.254	3.16414
272.472	2.21067
272.69	2.58641
272.908	2.45462
273.126	4.709
273.344	5.10347
273.562	1.78314
273.779	2.55862
273.997	3.86053
274.215	4.04774
274.433	2.83888
274.651	4.50207
274.869	4.44646
275.087	2.93028
275.305	3.96271
275.523	2.45523
275.74	2.87471
275.958	5.58345
276.176	7.91086
276.394	2.56005
276.612	3.22755
276.829	3.25518
277.047	2.69209
277.265	2.76587
277.483	3.53014
277.7	4.24015
277.918	3.4136
278.136	6.21672
278.353	2.85913
278.571	1.76491
278.789	4.06063
279.006	0.85096
279.224	2.96803
279.442	4.94687
279.659	3.37313
279.877	2.39053
280.094	5.725
280.312	1.14956
280.529	3.36935
280.747	0.82633
280.964	2.44357
281.182	5.92492
281.399	2.82714
281.617	3.88681
281.834	2.66021
282.052	1.82687
282.269	3.08558
282.487	2.34832
282.704	2.15956
282.921	2.29029
283.139	3.25757
283.356	3.95161
283.574	3.80521
283.791	1.82054
284.008	5.47509
284.226	3.02058
284.443	3.38698
284.66	4.40174
284.877	3.50282
285.095	1.99161
285.312	1.55803
285.529	0.87423
285.746	0.74008
285.964	2.02338
286.181	1.42707
286.398	1.9146
286.615	2.59124
286.832	2.62135
287.05	0.51258
287.267	1.82154
287.484	1.74703
287.701	2.52823
287.918	2.55173
288.135	2.60503
288.352	1.27463
288.569	1.36511
288.786	2.40999
289.003	2.02639
289.22	2.97678
289.437	1.62449
289.654	2.86124
289.871	3.04107
290.088	2.93441
290.305	2.37735
290.522	1.77327
290.739	2.08777
290.956	3.11646
291.173	3.537
291.39	3.37335
291.607	2.23047
291.824	1.67925
292.04	1.25447
292.257	2.87638
292.474	3.20387
292.691	2.09567
292.908	0.80746
293.125	1.59109
293.341	1.10342
293.558	5.10713
293.775	1.82631
293.992	2.00713
294.208	0.90619
294.425	1.34242
294.642	1.94879
294.858	2.80783
295.075	0.78448
295.292	1.98367
295.508	2.39045
295.725	4.14525
295.942	1.86797
296.158	1.50472
296.375	2.26967
296.591	1.79475
296.808	1.98896
297.024	2.35347
297.241	2.65214
297.458	2.87302
297.674	0.65981
297.891	2.28719
298.107	2.13214
298.323	1.59088
298.54	3.69805
298.756	1.88437
298.973	1.22255
299.189	3.69389
299.406	2.04449
299.622	3.52053
299.838	3.46303
300.055	3.37129
300.271	1.50466
300.487	1.96164
300.704	2.22336
300.92	1.63693
301.136	5.22732
301.353	3.53263
301.569	2.78951
301.785	3.12458
302.001	3.69002
302.218	3.24313
302.434	3.42306
302.65	1.83028
302.866	2.48881
303.083	5.16023
303.299	4.99673
303.515	3.23567
303.731	3.35957
303.947	1.88735
304.163	2.50735
304.379	3.38381
304.595	3.58836
304.812	2.64511
305.028	2.64021
305.244	3.04645
305.46	3.69075
305.676	4.03095
305.892	4.50326
306.108	3.80822
306.324	2.94956
306.54	5.01139
306.756	3.7984
306.972	3.61531
307.187	3.27085
307.403	4.59708
307.619	2.81833
307.835	4.54451
308.051	4.73832
308.267	2.43554
308.483	4.55403
308.699	3.84182
308.914	3.46043
309.13	3.35094
309.346	2.30849
309.562	2.66397
309.778	2.37853
309.993	3.83726
310.209	3.68305
310.425	2.55519
310.641	3.44423
310.856	2.70589
311.072	2.64261
311.288	3.46394
311.503	3.88609
311.719	2.11699
311.935	2.12728
312.15	4.09509
312.366	3.70263
312.581	3.9856
312.797	3.66672
313.013	4.44082
313.228	3.10222
313.444	3.41676
313.659	2.95251
313.875	3.85797
314.09	3.5193
314.306	4.83623
314.521	4.22784
314.737	4.29128
314.952	3.56507
315.168	3.69049
315.383	3.97024
315.599	3.38999
315.814	3.41584
316.029	4.3208
316.245	2.67385
316.46	2.14356
316.675	4.59337
316.891	5.09412
317.106	6.34215
317.321	3.6812
317.537	4.34831
317.752	4.45252
317.967	4.76016
318.183	2.85006
318.398	3.32659
318.613	4.36901
318.828	4.98192
319.043	4.27963
319.259	3.48147
319.474	3.95588
319.689	4.82037
319.904	2.20166
320.119	4.48995
320.334	3.9626
320.549	3.51359
320.765	4.85246
320.98	4.05174
321.195	4.226
321.41	3.66423
321.625	4.47965
321.84	5.42663
322.055	5.13743
322.27	3.14224
322.485	2.83379
322.7	4.1352
322.915	4.60204
323.13	3.30059
323.345	5.35185
323.56	4.77637
323.775	4.3814
323.989	4.24671
324.204	3.99731
324.419	4.91979
324.634	2.93248
324.849	3.78435
325.064	7.00202
325.279	4.8695
325.493	4.27624
325.708	4.62386
325.923	3.27196
326.138	3.47419
326.352	5.29974
326.567	4.75537
326.782	3.46895
326.997	3.48869
327.211	4.30998
327.426	4.09149
327.641	3.66343
327.855	2.67092
328.07	4.34347
328.285	5.66778
328.499	3.39576
328.714	4.07416
328.928	4.36466
329.143	3.7779
329.358	5.00082
329.572	4.81955
329.787	5.35095
330.001	6.30823
330.216	2.819
330.43	5.82562
330.645	5.31336
330.859	4.86799
331.074	3.19364
331.288	4.03246
331.503	5.34062
331.717	2.97756
331.931	4.28191
332.146	4.18166
332.36	5.76615
332.575	4.36458
332.789	4.08459
333.003	4.28803
333.218	4.6403
333.432	3.44886
333.646	4.8998
333.86	5.6552
334.075	5.51026
334.289	3.58222
334.503	2.98379
334.717	4.59812
334.932	4.32314
335.146	4.9178
335.36	3.55618
335.574	4.58363
335.788	4.40276
336.003	5.00808
336.217	4.75662
336.431	4.5358
336.645	3.5867
336.859	3.16163
337.073	4.06699
337.287	4.36007
337.501	3.12394
337.715	4.56493
337.929	4.8858
338.143	3.33898
338.357	4.06933
338.571	3.64098
338.785	4.80426
338.999	3.94336
339.213	3.87228
339.427	3.16491
339.641	5.43217
339.855	3.7703
340.069	3.64433
340.283	5.0156
340.497	5.7879
340.711	4.53752
340.924	4.13664
341.138	3.39436
341.352	3.15088
341.566	4.48403
341.78	3.02077
341.993	4.00498
342.207	3.60115
342.421	4.47186
342.635	4.12909
342.848	3.92637
343.062	2.34071
343.276	3.79434
343.49	5.84553
343.703	3.61755
343.917	5.1431
344.131	5.09745
344.344	3.6955
344.558	3.94658
344.771	3.15714
344.985	5.65987
345.199	5.85494
345.412	4.56861
345.626	4.68789
345.839	3.01051
346.053	3.37205
346.266	3.61427
346.48	4.88372
346.693	4.67525
346.907	4.62981
347.12	3.52754
347.334	4.49549
347.547	4.58131
347.76	4.20451
347.974	5.21783
348.187	4.50835
348.401	4.09043
348.614	3.65333
348.827	4.05634
349.041	4.69327
349.254	2.97247
349.467	3.96442
349.681	3.40753
349.894	3.64868
350.107	5.40036
350.32	6.01373
350.534	3.27126
350.747	4.01359
350.96	3.78085
351.173	3.86892
351.386	4.0064
351.6	3.8333
351.813	3.88418
352.026	4.06624
352.239	3.44562
352.452	4.09708
352.665	5.21564
352.878	4.26141
353.092	5.97955
353.305	5.09594
353.518	4.62538
353.731	3.62949
353.944	5.30889
354.157	4.12971
354.37	3.95233
354.583	3.59068
354.796	3.36097
355.009	5.25585
355.222	4.82209
355.435	4.51774
355.647	5.28987
355.86	3.99242
356.073	4.68419
356.286	4.17024
356.499	5.28893
356.712	5.00579
356.925	5.20189
357.138	5.27025
357.35	4.09928
357.563	4.42354
357.776	4.76282
357.989	4.6036
358.201	5.08003
358.414	5.08326
358.627	5.85942
358.84	4.57823
359.052	3.87446
359.265	4.28559
359.478	5.59457
359.69	3.03645
359.903	5.48216
360.116	5.63488
360.328	3.75252
360.541	5.48523
360.753	4.37374
360.966	4.70356
361.179	4.85831
361.391	4.79169
361.604	4.57722
361.816	4.83425
362.029	4.85179
362.241	4.58232
362.454	4.98048
362.666	4.5027
362.879	5.56453
363.091	4.85546
363.304	4.76784
363.516	4.94102
363.728	4.42097
363.941	5.52856
364.153	5.13181
364.366	3.76478
364.578	4.34996
364.79	5.29267
365.003	5.23236
365.215	4.66665
365.427	5.63879
365.639	5.87858
365.852	5.26703
366.064	6.77625
366.276	5.04033
366.488	5.39666
366.701	4.95017
366.913	5.06917
367.125	5.18275
367.337	4.59069
367.549	4.8945
367.762	5.38757
367.974	5.22718
368.186	4.95285
368.398	6.04525
368.61	5.77443
368.822	5.91099
369.034	5.20528
369.246	6.02945
369.458	7.62613
369.67	4.87371
369.882	6.78378
370.094	4.26735
370.306	6.72091
370.518	5.43799
370.73	5.11856
370.942	5.27297
371.154	5.68891
371.366	5.42114
371.578	6.0975
371.79	5.58897
372.002	6.55453
372.214	7.52766
372.425	5.83185
372.637	6.97218
372.849	6.18019
373.061	4.57687
373.273	6.19266
373.484	6.24945
373.696	6.56645
373.908	4.49556
374.12	6.87775
374.331	6.45947
374.543	5.54184
374.755	5.50132
374.967	6.08372
375.178	6.86765
375.39	5.88135
375.602	6.44047
375.813	5.15823
376.025	5.83392
376.236	6.54955
376.448	6.74661
376.66	6.31981
376.871	6.3714
377.083	7.39293
377.294	7.94723
377.506	6.43637
377.717	7.79583
377.929	7.0057
378.14	6.57526
378.352	7.21111
378.563	7.30068
378.775	7.95182
378.986	6.26944
379.197	7.00665
379.409	6.36546
379.62	7.28015
379.832	7.35884
380.043	6.92129
380.254	7.25274
380.466	6.45712
380.677	9.17992
380.888	8.60594
381.1	9.04811
381.311	9.06108
381.522	7.54874
381.733	9.31783
381.945	7.44722
382.156	7.36602
382.367	7.15396
382.578	9.32982
382.789	9.57409
383.001	7.10866
383.212	8.8667
383.423	8.83436
383.634	8.62615
383.845	8.52585
384.056	7.68049
384.267	8.09854
384.478	8.04169
384.69	7.33585
384.901	8.43695
385.112	8.39764
385.323	9.48563
385.534	8.52464
385.745	8.56611
385.956	8.44977
386.167	7.84071
386.378	8.71208
386.588	8.06381
386.799	7.92765
387.01	7.58118
387.221	9.10511
387.432	8.7414
387.643	9.73978
387.854	8.55033
388.065	8.55363
388.275	8.64041
388.486	8.49098
388.697	8.72985
388.908	8.5435
389.119	9.82478
389.329	9.77125
389.54	9.09521
389.751	9.23928
389.962	9.94914
390.172	9.18907
390.383	9.02252
390.594	8.75391
390.804	8.88833
391.015	9.0248
391.226	9.53588
391.436	9.79943
391.647	9.80982
391.858	10.0429
392.068	8.6838
392.279	9.15976
392.489	10.02438
392.7	10.38899
392.91	9.37851
393.121	9.45288
393.331	10.32112
393.542	10.67644
393.752	10.62977
393.963	10.36204
394.173	10.37517
394.384	10.37838
394.594	10.32941
394.804	9.48623
395.015	10.47638
395.225	10.65844
395.436	9.79595
395.646	10.60123
395.856	10.12883
396.067	9.44434
396.277	11.09194
396.487	10.68311
396.697	10.81344
396.908	10.79678
397.118	10.948
397.328	10.62722
397.538	11.13435
397.749	10.18214
397.959	11.18387
398.169	11.00289
398.379	9.92085
398.589	11.2305
398.8	11.06677
399.01	11.0115
399.22	10.85062
399.43	12.31302
399.64	10.95315
399.85	11.42346
400.06	11.21668
400.27	10.62879
400.48	11.07759
400.69	11.98286
400.9	10.76791
401.11	10.49272
401.32	11.52989
401.53	10.92803
401.74	12.30573
401.95	11.67322
402.16	11.01594
402.37	11.52517
402.58	11.09065
402.79	11.73358
403	12.22833
403.209	11.14585
403.419	12.37402
403.629	11.17865
403.839	12.35083
404.049	12.25262
404.258	11.70091
404.468	11.31204
404.678	12.26694
404.888	12.69733
405.097	11.84977
405.307	11.99408
405.517	12.51236
405.727	12.50953
405.936	11.91444
406.146	12.34958
406.356	13.06284
406.565	12.21054
406.775	11.84862
406.984	11.98758
407.194	13.29577
407.404	12.18275
407.613	12.60953
407.823	12.75544
408.032	13.03732
408.242	12.9162
408.451	12.07961
408.661	12.25358
408.87	13.44486
409.08	11.89947
409.289	12.56679
409.499	12.70426
409.708	12.56969
409.918	11.4255
410.127	12.67067
410.336	13.50221
410.546	13.1374
410.755	12.43797
410.964	12.71353
411.174	12.41544
411.383	12.9739
411.592	13.05014
411.802	12.3563
412.011	13.25205
412.22	12.64889
412.429	13.95839
412.639	13.97565
412.848	13.39754
413.057	13.71636
413.266	13.66611
413.475	13.10624
413.685	13.37938
413.894	13.66147
414.103	13.70167
414.312	13.769
414.521	12.86319
414.73	13.28399
414.939	14.55477
415.148	13.74771
415.357	13.64914
415.566	13.23807
415.776	13.21875
415.985	13.34504
416.194	14.00782
416.403	14.73447
416.611	12.93366
416.82	13.45902
417.029	13.82682
417.238	13.51123
417.447	13.36425
417.656	13.7161
417.865	13.45466
418.074	13.9429
418.283	14.11276
418.492	14.7143
418.7	14.45939
418.909	15.66728
419.118	14.81456
419.327	15.28187
419.536	15.25701
419.744	15.4635
419.953	16.87106
420.162	17.28877
420.371	16.96557
420.579	17.90195
420.788	18.72094
420.997	18.80475
421.205	19.64041
421.414	19.24748
421.623	19.49975
421.831	19.14954
422.04	19.69
422.249	18.56478
422.457	18.81429
422.666	17.75268
422.874	18.57193
423.083	18.59139
423.291	18.69711
423.5	18.66425
423.708	19.35651
423.917	19.80563
424.125	19.44608
424.334	19.39194
424.542	20.97486
424.751	20.67632
424.959	20.28034
