Data from WindowProjectSample_Transmission__29__00029.txt Node

Date: Sat May 03 15:31:57 EDT 2025
User: jessi
Spectrometer: SR400872
Trigger mode: 0
Integration Time (sec): 5.000010E-1
Scans to average: 6
Electric dark correction enabled: true
Nonlinearity correction enabled: true
Boxcar width: 0
XAxis mode: Wavelengths
Number of Pixels in Spectrum: 3648
>>>>>Begin Spectral Data<<<<<
184.909	19250.29439
185.132	2740.7288
185.355	23328.95139
185.578	-8056.6124
185.801	406.12213
186.024	-1558.38013
186.247	811.95689
186.47	1666.05281
186.693	-58.16631
186.916	-1977.1229
187.139	-2726.24196
187.362	1699.1448
187.585	2966.17206
187.808	-3024.82877
188.031	-995.01007
188.254	-1325.44841
188.476	-843.36953
188.699	2621.15446
188.922	-938.96299
189.145	-10150.22474
189.368	-469.99208
189.591	-1096.84511
189.813	-1891.97008
190.036	1257.70165
190.259	1817.55803
190.482	600.8542
190.705	10911.19813
190.927	-1071.74181
191.15	3641.42695
191.373	2419.6415
191.595	-2294.21449
191.818	2576.97461
192.041	-350.46994
192.263	2844.10199
192.486	2029.05669
192.709	-5543.38025
192.931	2868.16698
193.154	-6552.70211
193.377	179163.76015
193.599	1486.08696
193.822	1866.36714
194.044	-2143.00033
194.267	478.54753
194.489	-586.31673
194.712	1526.66962
194.934	3448.52227
195.157	-14633.51416
195.379	810.96455
195.602	2442.42237
195.824	2141.94414
196.047	2486.34315
196.269	3044.77438
196.492	3261.58593
196.714	2742.79247
196.936	1196.01565
197.159	1505.02967
197.381	-2206.33662
197.604	-710.18438
197.826	6745.4941
198.048	3009.07135
198.271	4182.87291
198.493	2012.50254
198.715	-6002.70912
198.938	-600.66652
199.16	1963.48223
199.382	1496.97787
199.604	-703.58104
199.827	9047.20605
200.049	916.61412
200.271	-2958.19456
200.493	-56099.26849
200.715	2265.21815
200.938	6723.60358
201.16	-7370.6231
201.382	-2915.66426
201.604	-2106.37593
201.826	7228.14127
202.048	964.8837
202.27	-16702.59499
202.492	4909.55146
202.715	-1104.6637
202.937	4745.04136
203.159	-2309.409
203.381	963.49103
203.603	-3491.01657
203.825	-2882.2522
204.047	3404.93724
204.269	-2071.95955
204.491	2165.80673
204.713	1986.66006
204.935	14881.79721
205.156	1837.48035
205.378	-8973.81559
205.6	-4156.78719
205.822	8961.84812
206.044	-673.79748
206.266	4498.65406
206.488	1165.35706
206.71	28643.8688
206.932	2539.43387
207.153	-5054.4312
207.375	-1995.19533
207.597	8968.20757
207.819	4338.06886
208.041	2246.70329
208.262	-2274.12772
208.484	-1094.1434
208.706	-2852.87032
208.927	32426.20301
209.149	951.93733
209.371	-6278.20997
209.593	1452.38657
209.814	5618.82056
210.036	-2756.40279
210.258	-5513.40645
210.479	-1445.91244
210.701	975.26965
210.922	6491.60266
211.144	-1217.27853
211.366	-6382.93451
211.587	-503.45838
211.809	9532.97331
212.03	-1350.80505
212.252	-1823.62809
212.473	701.74974
212.695	-2441.06947
212.916	2900.238
213.138	2928.91327
213.359	-1798.02697
213.581	6676.89144
213.802	-1884.35674
214.024	17666.51629
214.245	-3220.58372
214.466	-691.65474
214.688	1644.02134
214.909	902.20162
215.131	-95406.68754
215.352	1682.54042
215.573	2557.77937
215.795	2884.80209
216.016	3967.5236
216.237	-663.12178
216.459	6574.46222
216.68	98277.4305
216.901	-85276.75853
217.122	2045.60757
217.344	6497.37541
217.565	-58213.83913
217.786	1579.17045
218.007	1524.44579
218.228	-1341.88044
218.45	-1257.60754
218.671	-1113.73502
218.892	1204.1733
219.113	-18438.33272
219.334	-452.77171
219.555	-5771.54579
219.776	1690.02718
219.997	3363.48389
220.219	1062.12088
220.44	2289.62018
220.661	-3101.20995
220.882	3317.92893
221.103	-1298.81803
221.324	993.81753
221.545	2225.47433
221.766	-6226.90576
221.987	4574.66148
222.208	-1753.52568
222.429	3513.75494
222.65	-176.11359
222.87	-581.45999
223.091	8571.49166
223.312	2728.99477
223.533	7056.79492
223.754	1895.46638
223.975	1428.21896
224.196	-12196.18393
224.417	1011.31336
224.637	885.8364
224.858	-469.83842
225.079	7516.55519
225.3	595.27227
225.521	2104.33703
225.741	1477.43758
225.962	762.53214
226.183	298.6792
226.404	668.1357
226.624	570.39571
226.845	368.65523
227.066	416.93883
227.286	180.70661
227.507	96.93666
227.728	83.98562
227.948	127.23883
228.169	43.18346
228.389	47.17409
228.61	26.00455
228.831	36.11016
229.051	4.01604
229.272	22.50137
229.492	31.24021
229.713	9.01067
229.933	23.1797
230.154	19.79887
230.374	32.686
230.595	24.66214
230.815	17.29072
231.036	24.14489
231.256	-3.27038
231.477	44.68446
231.697	23.77338
231.917	24.17881
232.138	39.28536
232.358	75.10746
232.579	63.25879
232.799	9.5338
233.019	67.53339
233.24	81.85434
233.46	24.36695
233.68	43.69782
233.901	29.3441
234.121	19.20818
234.341	8.40297
234.561	-3.08565
234.782	17.17692
235.002	47.22121
235.222	1.85786
235.442	41.02265
235.662	21.08425
235.883	42.79863
236.103	36.27894
236.323	26.32381
236.543	17.79307
236.763	29.97536
236.983	32.50326
237.203	31.36515
237.423	43.54604
237.643	62.55283
237.864	52.36626
238.084	16.83963
238.304	21.09755
238.524	35.26048
238.744	31.30975
238.964	47.23792
239.184	44.11168
239.404	44.41071
239.624	24.29943
239.843	41.2212
240.063	24.33967
240.283	15.66602
240.503	17.1584
240.723	16.6914
240.943	9.19054
241.163	14.11772
241.383	9.28184
241.603	5.16983
241.822	6.1241
242.042	4.61556
242.262	6.16616
242.482	6.6357
242.702	8.4263
242.921	2.96277
243.141	5.48444
243.361	5.11243
243.581	7.4848
243.8	6.03264
244.02	3.64223
244.24	8.49945
244.459	7.39377
244.679	14.72665
244.899	9.41121
245.118	10.94184
245.338	9.72545
245.558	10.52766
245.777	6.41012
245.997	7.5661
246.216	7.68773
246.436	4.44791
246.655	3.1355
246.875	2.67765
247.094	4.99132
247.314	1.91485
247.533	2.81469
247.753	3.58742
247.972	2.95624
248.192	1.239
248.411	1.79938
248.631	3.22181
248.85	4.18033
249.07	2.41711
249.289	5.26068
249.508	3.91611
249.728	6.108
249.947	6.63162
250.166	7.05114
250.386	3.75139
250.605	5.25076
250.824	9.10713
251.044	6.78804
251.263	20.77394
251.482	11.08823
251.701	9.80235
251.921	0.14548
252.14	3.2375
252.359	3.3044
252.578	8.18237
252.798	3.09654
253.017	7.68805
253.236	4.00847
253.455	5.04656
253.674	9.78006
253.893	4.58246
254.112	6.58199
254.331	9.70439
254.551	7.34896
254.77	3.92533
254.989	12.06929
255.208	9.58811
255.427	12.26981
255.646	11.13304
255.865	17.22586
256.084	6.63557
256.303	9.11878
256.522	12.04856
256.741	2.28538
256.96	3.23904
257.179	6.84639
257.397	9.44912
257.616	4.54533
257.835	4.52741
258.054	12.28566
258.273	7.60386
258.492	9.06335
258.711	5.17671
258.93	2.58599
259.148	3.48272
259.367	3.52727
259.586	4.33179
259.805	2.26847
260.023	4.23959
260.242	3.38897
260.461	2.25875
260.68	1.42211
260.898	3.77506
261.117	1.32792
261.336	1.01698
261.554	3.37793
261.773	3.25175
261.992	0.67569
262.21	3.13661
262.429	3.89512
262.648	6.71606
262.866	7.02897
263.085	4.78649
263.303	4.18258
263.522	7.818
263.74	8.09899
263.959	12.64783
264.178	6.65192
264.396	5.82652
264.615	4.29286
264.833	9.96521
265.051	8.74301
265.27	8.57906
265.488	9.54521
265.707	6.06567
265.925	8.92256
266.144	4.2049
266.362	5.24286
266.58	4.9256
266.799	4.04719
267.017	5.20931
267.235	4.54001
267.454	3.06128
267.672	1.83708
267.89	3.65773
268.109	4.40778
268.327	3.50183
268.545	1.14116
268.763	3.75446
268.982	1.09376
269.2	4.72048
269.418	2.71203
269.636	2.11346
269.854	3.80373
270.073	3.29243
270.291	1.71236
270.509	1.76499
270.727	3.79999
270.945	6.27538
271.163	6.20199
271.381	1.45637
271.599	2.53301
271.817	4.53065
272.036	1.8692
272.254	2.78938
272.472	2.28447
272.69	2.32429
272.908	2.28084
273.126	3.68053
273.344	4.69059
273.562	1.9266
273.779	2.35369
273.997	3.49375
274.215	3.80933
274.433	2.72756
274.651	4.17113
274.869	3.9143
275.087	2.38232
275.305	3.7993
275.523	2.04587
275.74	3.05021
275.958	4.73748
276.176	6.99211
276.394	2.05797
276.612	2.83967
276.829	2.77212
277.047	2.57552
277.265	2.6289
277.483	3.26142
277.7	3.73955
277.918	3.0675
278.136	5.7738
278.353	2.6453
278.571	1.53692
278.789	4.63971
279.006	1.00214
279.224	2.78491
279.442	4.53825
279.659	2.94819
279.877	2.37937
280.094	4.89732
280.312	1.12796
280.529	3.07795
280.747	0.96501
280.964	2.49042
281.182	5.19279
281.399	2.34963
281.617	3.56695
281.834	2.39707
282.052	2.11061
282.269	2.82668
282.487	2.48793
282.704	1.93043
282.921	2.14428
283.139	2.72087
283.356	3.79809
283.574	3.41185
283.791	1.81081
284.008	4.76875
284.226	2.49878
284.443	2.92129
284.66	3.59744
284.877	2.98447
285.095	2.01252
285.312	1.30193
285.529	1.06598
285.746	0.84249
285.964	1.78102
286.181	1.19541
286.398	1.81649
286.615	2.475
286.832	2.36672
287.05	0.80345
287.267	1.55027
287.484	1.74234
287.701	2.44331
287.918	2.46306
288.135	2.49971
288.352	1.14697
288.569	1.16305
288.786	2.14137
289.003	1.68393
289.22	2.60409
289.437	1.74002
289.654	2.70029
289.871	2.99767
290.088	2.69319
290.305	2.11485
290.522	1.48426
290.739	1.87684
290.956	2.72909
291.173	3.48905
291.39	3.30542
291.607	2.12676
291.824	1.65481
292.04	1.11499
292.257	2.78882
292.474	3.06023
292.691	1.9278
292.908	1.13504
293.125	1.69515
293.341	1.03288
293.558	4.4819
293.775	2.01818
293.992	1.9972
294.208	0.8649
294.425	1.07798
294.642	1.64109
294.858	2.22619
295.075	0.70032
295.292	1.80908
295.508	2.23783
295.725	3.40151
295.942	1.69998
296.158	1.09985
296.375	1.97541
296.591	1.45099
296.808	1.66531
297.024	1.69213
297.241	1.93858
297.458	2.29442
297.674	0.152
297.891	1.70473
298.107	1.26264
298.323	1.02753
298.54	2.59433
298.756	1.14363
298.973	0.47229
299.189	2.72589
299.406	1.24291
299.622	2.7319
299.838	2.57896
300.055	2.54818
300.271	0.5971
300.487	0.83892
300.704	1.00374
300.92	0.69906
301.136	3.87426
301.353	2.60748
301.569	1.85754
301.785	2.17417
302.001	2.56414
302.218	2.28876
302.434	2.03373
302.65	0.80179
302.866	1.50966
303.083	3.62496
303.299	3.54069
303.515	1.65419
303.731	1.99628
303.947	0.7174
304.163	1.11719
304.379	2.10704
304.595	2.37036
304.812	1.33724
305.028	1.09989
305.244	1.55228
305.46	2.55071
305.676	2.63246
305.892	3.00576
306.108	2.03335
306.324	1.43708
306.54	3.63896
306.756	2.60853
306.972	2.48485
307.187	1.70379
307.403	3.25148
307.619	1.38549
307.835	2.72806
308.051	3.24561
308.267	0.60525
308.483	2.78139
308.699	2.37934
308.914	1.99026
309.13	1.85168
309.346	0.5656
309.562	1.04445
309.778	0.67559
309.993	2.3676
310.209	1.94685
310.425	0.81523
310.641	1.59923
310.856	1.06793
311.072	0.89685
311.288	1.79169
311.503	2.0836
311.719	0.42938
311.935	0.34484
312.15	2.25875
312.366	1.96318
312.581	2.37159
312.797	1.99082
313.013	2.60462
313.228	1.58457
313.444	1.96319
313.659	1.45695
313.875	2.30313
314.09	1.87262
314.306	2.786
314.521	2.72627
314.737	2.4957
314.952	2.10812
315.168	1.88769
315.383	2.41938
315.599	1.61976
315.814	1.63248
316.029	2.65018
316.245	0.92178
316.46	0.84034
316.675	2.9894
316.891	3.8157
317.106	4.49675
317.321	2.72711
317.537	2.63471
317.752	2.74674
317.967	2.76369
318.183	1.29688
318.398	1.56159
318.613	2.9341
318.828	3.24389
319.043	2.74743
319.259	1.68164
319.474	2.27082
319.689	2.9768
319.904	0.58965
320.119	2.75417
320.334	2.1739
320.549	1.99043
320.765	2.9272
320.98	2.25133
321.195	2.88405
321.41	1.95709
321.625	2.78871
321.84	3.64552
322.055	3.53713
322.27	1.41712
322.485	1.2168
322.7	2.19406
322.915	3.00829
323.13	1.43577
323.345	3.64773
323.56	2.92181
323.775	2.78292
323.989	2.60047
324.204	2.13588
324.419	2.91451
324.634	1.15064
324.849	2.01142
325.064	4.42794
325.279	3.23241
325.493	2.80076
325.708	2.94717
325.923	1.47056
326.138	1.69932
326.352	3.5819
326.567	3.05613
326.782	1.7626
326.997	1.69972
327.211	2.65021
327.426	2.54696
327.641	1.96058
327.855	0.98787
328.07	2.674
328.285	4.00871
328.499	2.04847
328.714	2.74753
328.928	2.89218
329.143	2.4189
329.358	3.25681
329.572	3.16953
329.787	3.81277
330.001	4.57537
330.216	1.09796
330.43	4.31444
330.645	3.65995
330.859	3.02172
331.074	1.70831
331.288	2.53552
331.503	3.95671
331.717	1.41784
331.931	2.46453
332.146	2.7222
332.36	4.30172
332.575	2.76746
332.789	2.42666
333.003	2.60541
333.218	2.87469
333.432	2.18051
333.646	3.28422
333.86	4.06196
334.075	4.03256
334.289	2.25084
334.503	1.70512
334.717	3.20271
334.932	2.78175
335.146	3.46154
335.36	2.13021
335.574	3.0588
335.788	2.7107
336.003	3.47549
336.217	3.452
336.431	3.10679
336.645	2.08461
336.859	1.74276
337.073	2.60689
337.287	2.92583
337.501	1.81714
337.715	3.16244
337.929	3.34385
338.143	1.868
338.357	2.77996
338.571	2.31118
338.785	3.67552
338.999	2.42482
339.213	2.55394
339.427	1.74439
339.641	3.91214
339.855	2.41223
340.069	2.05419
340.283	3.67491
340.497	4.32767
340.711	3.33345
340.924	3.02508
341.138	1.97823
341.352	1.92295
341.566	3.03008
341.78	1.83553
341.993	2.61815
342.207	2.15707
342.421	3.35353
342.635	3.14841
342.848	2.70264
343.062	1.19666
343.276	2.54286
343.49	4.78373
343.703	2.52761
343.917	4.0119
344.131	4.16417
344.344	2.39174
344.558	2.74314
344.771	2.16996
344.985	4.2961
345.199	4.7849
345.412	3.48284
345.626	3.79002
345.839	2.01985
346.053	2.33375
346.266	2.37733
346.48	3.97993
346.693	3.6065
346.907	3.8057
347.12	2.50092
347.334	3.46044
347.547	3.77395
347.76	3.55235
347.974	4.30407
348.187	3.54367
348.401	3.14756
348.614	2.53922
348.827	3.22454
349.041	3.78322
349.254	2.18495
349.467	3.16104
349.681	2.64582
349.894	2.65256
350.107	4.72026
350.32	5.22907
350.534	2.29104
350.747	3.20774
350.96	3.04235
351.173	3.13181
351.386	3.43961
351.6	3.06892
351.813	3.43799
352.026	3.59504
352.239	2.84451
352.452	3.29239
352.665	4.54526
352.878	3.31777
353.092	5.69418
353.305	4.37336
353.518	3.95272
353.731	2.80214
353.944	4.81535
354.157	3.30441
354.37	3.55882
354.583	2.95644
354.796	3.1568
355.009	4.79432
355.222	4.17404
355.435	4.09263
355.647	5.01186
355.86	3.55958
356.073	4.14821
356.286	3.60801
356.499	4.87108
356.712	4.91225
356.925	4.78448
357.138	5.08347
357.35	3.70292
357.563	4.07341
357.776	4.5859
357.989	4.55635
358.201	4.78995
358.414	4.65512
358.627	5.6061
358.84	4.4288
359.052	3.72351
359.265	3.88561
359.478	5.35799
359.69	2.51399
359.903	5.35036
360.116	5.52353
360.328	3.44988
360.541	5.37528
360.753	4.40089
360.966	4.61766
361.179	4.86423
361.391	4.82236
361.604	4.51816
361.816	4.67996
362.029	4.84127
362.241	4.49938
362.454	5.01832
362.666	4.48008
362.879	5.5853
363.091	4.7129
363.304	4.77271
363.516	4.84812
363.728	4.22497
363.941	5.2353
364.153	5.01675
364.366	3.6959
364.578	4.32565
364.79	5.39304
365.003	5.48162
365.215	4.70813
365.427	5.68345
365.639	5.90938
365.852	5.37716
366.064	6.37469
366.276	4.81129
366.488	5.41979
366.701	5.09282
366.913	4.87455
367.125	5.12471
367.337	4.75105
367.549	4.87331
367.762	5.02536
367.974	5.31828
368.186	5.21405
368.398	6.05882
368.61	5.674
368.822	5.75919
369.034	5.01923
369.246	6.05753
369.458	7.45999
369.67	4.73017
369.882	6.67869
370.094	3.97699
370.306	6.32186
370.518	5.087
370.73	4.90469
370.942	5.147
371.154	5.52907
371.366	5.4336
371.578	6.03525
371.79	5.56963
372.002	6.5541
372.214	7.41802
372.425	5.54747
372.637	7.00303
372.849	5.92903
373.061	4.11432
373.273	6.03933
373.484	6.11791
373.696	6.40563
373.908	4.29041
374.12	6.32289
374.331	6.2099
374.543	5.03826
374.755	5.11508
374.967	5.83238
375.178	6.79744
375.39	5.86278
375.602	6.03221
375.813	4.95976
376.025	5.2652
376.236	6.13694
376.448	6.07251
376.66	6.06408
376.871	6.236
377.083	6.79851
377.294	7.6151
377.506	6.03106
377.717	7.22492
377.929	6.54082
378.14	6.36218
378.352	6.58939
378.563	7.03572
378.775	7.44369
378.986	5.58243
379.197	6.48045
379.409	5.71085
379.62	6.78161
379.832	6.2674
380.043	6.2866
380.254	6.76794
380.466	5.45833
380.677	8.60693
380.888	7.88164
381.1	8.83491
381.311	8.84709
381.522	7.10591
381.733	8.83232
381.945	6.61284
382.156	6.39126
382.367	6.46878
382.578	8.95393
382.789	9.10234
383.001	5.90792
383.212	8.09347
383.423	8.20743
383.634	7.67238
383.845	7.55035
384.056	6.57805
384.267	6.99452
384.478	7.02258
384.69	6.18121
384.901	7.5014
385.112	7.12269
385.323	8.4575
385.534	7.35974
385.745	7.58212
385.956	7.33196
386.167	6.61648
386.378	7.69425
386.588	6.78514
386.799	6.49895
387.01	6.21415
387.221	7.98772
387.432	7.4688
387.643	8.38763
387.854	7.03679
388.065	7.15783
388.275	7.08512
388.486	6.69559
388.697	7.69686
388.908	6.87097
389.119	8.26163
389.329	8.30823
389.54	7.52613
389.751	7.79571
389.962	8.19887
390.172	7.37704
390.383	7.44982
390.594	6.98099
390.804	6.88824
391.015	7.15221
391.226	7.90688
391.436	8.30458
391.647	8.03173
391.858	8.09758
392.068	6.49131
392.279	7.16894
392.489	8.05814
392.7	8.29672
392.91	7.43635
393.121	7.25835
393.331	8.18728
393.542	8.55758
393.752	8.50391
393.963	8.2036
394.173	8.33486
394.384	8.45138
394.594	7.93286
394.804	7.31061
395.015	7.95842
395.225	8.34229
395.436	7.30391
395.646	8.37416
395.856	7.74134
396.067	6.9919
396.277	8.57315
396.487	8.22995
396.697	8.31697
396.908	8.50746
397.118	8.43819
397.328	8.16656
397.538	8.72484
397.749	7.66656
397.959	8.8188
398.169	8.42553
398.379	7.02458
398.589	8.31948
398.8	8.4335
399.01	8.41619
399.22	8.00795
399.43	9.66538
399.64	8.09519
399.85	8.4499
400.06	8.33812
400.27	7.7467
400.48	8.07829
400.69	8.86044
400.9	7.9485
401.11	7.36296
401.32	8.67945
401.53	7.75192
401.74	9.1233
401.95	8.42277
402.16	8.2263
402.37	8.45965
402.58	8.15046
402.79	8.59496
403	9.01532
403.209	8.19561
403.419	9.1569
403.629	7.89752
403.839	9.07263
404.049	9.06824
404.258	8.25148
404.468	8.23055
404.678	9.17342
404.888	9.59713
405.097	8.69671
405.307	8.60835
405.517	9.01267
405.727	9.13689
405.936	8.42973
406.146	8.89124
406.356	9.58197
406.565	8.81333
406.775	8.49175
406.984	8.42853
407.194	10.25208
407.404	8.91827
407.613	8.96085
407.823	9.11912
408.032	9.88914
408.242	9.16342
408.451	8.57191
408.661	8.70915
408.87	9.92409
409.08	8.32396
409.289	9.03281
409.499	9.0167
409.708	8.87774
409.918	7.49445
410.127	9.08063
410.336	9.98789
410.546	9.46648
410.755	8.61676
410.964	8.73787
411.174	8.23931
411.383	9.44253
411.592	9.13966
411.802	8.25876
412.011	9.51958
412.22	8.88397
412.429	10.03116
412.639	10.16817
412.848	9.68779
413.057	10.32858
413.266	9.66228
413.475	8.95751
413.685	9.551
413.894	9.61003
414.103	9.83173
414.312	9.54371
414.521	8.91715
414.73	9.57974
414.939	10.40602
415.148	9.67109
415.357	9.53633
415.566	9.21191
415.776	9.33679
415.985	9.19835
416.194	10.02767
416.403	10.75218
416.611	8.7059
416.82	9.30347
417.029	9.73549
417.238	9.22315
417.447	9.31357
417.656	9.7594
417.865	9.61589
418.074	10.14863
418.283	10.77718
418.492	12.00368
418.7	11.86406
418.909	13.57711
419.118	12.14059
419.327	12.89408
419.536	12.53982
419.744	12.88007
419.953	14.40267
420.162	14.49563
420.371	13.9214
420.579	14.8829
420.788	15.77649
420.997	16.10749
421.205	16.21875
421.414	15.89682
421.623	16.25839
421.831	15.5544
422.04	16.0438
422.249	14.83872
422.457	15.32953
422.666	14.44745
422.874	15.41812
423.083	15.69615
423.291	15.56872
423.5	15.72956
423.708	16.08433
423.917	16.90281
424.125	16.01499
424.334	15.81211
424.542	17.84767
424.751	17.05817
424.959	16.6284
425.167	16.90455
425.376	16.59759
425.584	14.96219
425.793	14.69432
426.001	13.53958
426.209	13.51199
426.418	12.21053
426.626	11.35032
426.834	11.00186
427.042	10.81433
427.251	10.36787
