Data from WindowProjectSample_Transmission__8__00008__07052597650756175.txt Node

Date: Mon May 05 16:46:11 EDT 2025
User: jessi
Spectrometer: SR400872
Trigger mode: 0
Integration Time (sec): 5.000010E-1
Scans to average: 20
Electric dark correction enabled: true
Nonlinearity correction enabled: true
Boxcar width: 0
XAxis mode: Wavelengths
Number of Pixels in Spectrum: 3648
>>>>>Begin Spectral Data<<<<<
184.909	19793.50698
185.132	-4820.2483
185.355	-2924.9693
185.578	-16959.0833
185.801	1819.12687
186.024	9947.55797
186.247	-1885.32181
186.47	1003.8297
186.693	163.1417
186.916	315.62951
187.139	-3409.42771
187.362	3307.11563
187.585	3707.6183
187.808	3622.55513
188.031	-17.70959
188.254	-45659.10462
188.476	-1637.78914
188.699	10912.74446
188.922	5475.09351
189.145	-29170.0142
189.368	-4335.83953
189.591	-6821.98158
189.813	9890.68435
190.036	-143298.69756
190.259	-3514.00855
190.482	-17339.59108
190.705	14881.23472
190.927	-7085.57138
191.15	29023.82134
191.373	9707.58806
191.595	-27984.69929
191.818	-8669.81439
192.041	-63591.88882
192.263	-10356.74783
192.486	-5818.55742
192.709	-8749.39338
192.931	20112.56415
193.154	-53801.15955
193.377	-7117.31364
193.599	-10798.5744
193.822	-39243.71068
194.044	-7387.36432
194.267	5783.38221
194.489	-3557.54372
194.712	-107267.85061
194.934	-59549.341
195.157	-4664.58874
195.379	7137.98079
195.602	-22901.39408
195.824	-3861.45273
196.047	-40958.99046
196.269	5756.11581
196.492	-21639.08592
196.714	94850.79429
196.936	-22626.50802
197.159	-3910.19282
197.381	6217.83376
197.604	5636.90994
197.826	33392.78148
198.048	-40336.1846
198.271	-8595.46091
198.493	21350.99777
198.715	7068.59619
198.938	-4277.28672
199.16	26746.0491
199.382	-230832.48223
199.604	13039.16385
199.827	-3685.77872
200.049	-11276.81485
200.271	47547.84991
200.493	3585.18485
200.715	-99113.2166
200.938	-12343.37202
201.16	-10324.86116
201.382	75610.98552
201.604	6185.19188
201.826	6750.1239
202.048	-7633.47562
202.27	-6880.94838
202.492	-101594.90566
202.715	10627.17936
202.937	-13641.82263
203.159	-17601.65319
203.381	5819.09048
203.603	21177.73377
203.825	30630.55016
204.047	7308.7258
204.269	-11195.33638
204.491	7581.44872
204.713	17228.67407
204.935	-1535705.13029
205.156	4798.01149
205.378	-11791.21743
205.6	5345.59653
205.822	315351.28984
206.044	-9672.57479
206.266	5510.83495
206.488	24462.80131
206.71	-13509.96111
206.932	4261.61697
207.153	32332.85339
207.375	-24753.55407
207.597	-74952.37917
207.819	-8147.40272
208.041	6108.20393
208.262	3097.54897
208.484	3321.22819
208.706	-3731.69736
208.927	-4527.58439
209.149	2633.76368
209.371	-7917.25861
209.593	-4583.59303
209.814	-4464.43823
210.036	5042.63445
210.258	-3862.90571
210.479	9692.57061
210.701	8137.8381
210.922	11697.41656
211.144	-18580.08361
211.366	6935.55926
211.587	49298.80404
211.809	-24021.51025
212.03	9378.57313
212.252	3859.72278
212.473	9424.94702
212.695	-44298.01092
212.916	11323.27121
213.138	-5327.78392
213.359	10790.30628
213.581	20643.25351
213.802	-6210.92207
214.024	3553.1498
214.245	10665.64577
214.466	35389.42797
214.688	-10062.92907
214.909	-5537.67059
215.131	-6015.60039
215.352	-14954.99628
215.573	31532.22656
215.795	14989.51015
216.016	16136.75619
216.237	5070.75772
216.459	13346.41799
216.68	5395.78075
216.901	16567.38803
217.122	-21347.53871
217.344	-38213.24968
217.565	8656.84852
217.786	22157.6677
218.007	119823.50251
218.228	-8029.57839
218.45	19920.34782
218.671	5863.98806
218.892	171383.25694
219.113	7499.82835
219.334	8615.13103
219.555	38581.32808
219.776	11205.01847
219.997	62075.27629
220.219	16359.6255
220.44	-64198.36237
220.661	3240.34048
220.882	5988.89414
221.103	-9064.48987
221.324	12452.41468
221.545	8454.02696
221.766	-34260.26855
221.987	8377.7808
222.208	12761.26357
222.429	13634.44236
222.65	14290.89017
222.87	214788.02199
223.091	4897.01634
223.312	5312.79348
223.533	9395.72003
223.754	5542.44422
223.975	7186.49727
224.196	15868.05286
224.417	8292.25368
224.637	7957.5869
224.858	8803.77857
225.079	10238.26369
225.3	6387.34082
225.521	10613.24611
225.741	5781.35881
225.962	5002.79275
226.183	4504.78877
226.404	4579.01657
226.624	4520.32477
226.845	5981.76574
227.066	4617.88364
227.286	3888.61537
227.507	3521.87409
227.728	3386.91514
227.948	3633.71135
228.169	2854.82482
228.389	2980.07185
228.61	2516.98973
228.831	2521.08728
229.051	2261.74265
229.272	2226.85881
229.492	2143.19654
229.713	2083.86383
229.933	2033.3418
230.154	2124.03565
230.374	2127.27495
230.595	2194.86467
230.815	2203.60327
231.036	2299.21687
231.256	2314.71531
231.477	2444.78893
231.697	2513.11574
231.917	2527.20769
232.138	2580.96984
232.358	2619.10827
232.579	2797.71738
232.799	2563.5975
233.019	2929.79308
233.24	2831.82231
233.46	2540.55484
233.68	2732.91613
233.901	2632.50391
234.121	2654.27838
234.341	2466.72786
234.561	2410.61631
234.782	2393.94241
235.002	2439.62684
235.222	2301.87942
235.442	2373.86234
235.662	2397.01427
235.883	2327.34735
236.103	2291.62571
236.323	2373.7883
236.543	2408.42579
236.763	2449.09263
236.983	2505.12916
237.203	2440.24581
237.423	2414.81402
237.643	2504.28547
237.864	2519.96846
238.084	2387.27862
238.304	2348.30922
238.524	2573.45872
238.744	2333.88761
238.964	2511.82957
239.184	2464.48998
239.404	2351.16383
239.624	2203.29576
239.843	2230.28839
240.063	2047.55585
240.283	2081.57691
240.503	1937.4323
240.723	1928.71155
240.943	1838.16317
241.163	1806.80938
241.383	1720.62121
241.603	1676.15472
241.822	1505.62498
242.042	1359.03128
242.262	1166.26921
242.482	1079.09366
242.702	993.87136
242.921	984.41286
243.141	934.43906
243.361	952.54409
243.581	971.05262
243.8	1066.06431
244.02	1098.1629
244.24	1213.43715
244.459	1355.34609
244.679	1541.1276
244.899	1648.89028
245.118	1705.87554
245.338	1663.2179
245.558	1673.12595
245.777	1523.91678
245.997	1346.81702
246.216	1099.70508
246.436	909.7515
246.655	747.57392
246.875	617.18382
247.094	538.59683
247.314	487.4436
247.533	468.03815
247.753	455.07226
247.972	442.1843
248.192	443.68283
248.411	455.87414
248.631	476.53834
248.85	529.0765
249.07	599.9466
249.289	687.06348
249.508	789.95883
249.728	852.28695
249.947	979.61645
250.166	1065.69692
250.386	1213.11259
250.605	1318.72952
250.824	1453.40901
251.044	1500.9664
251.263	1489.2162
251.482	1388.19214
251.701	1245.09295
251.921	1121.26199
252.14	1007.5857
252.359	945.50658
252.578	910.81878
252.798	892.35246
253.017	898.49332
253.236	939.97346
253.455	966.07881
253.674	1034.37192
253.893	1143.01357
254.112	1333.2299
254.331	1509.80264
254.551	1625.12638
254.77	1639.38652
254.989	1655.09434
255.208	1687.15167
255.427	1664.89416
255.646	1716.94405
255.865	1675.12553
256.084	1651.36029
256.303	1638.88108
256.522	1657.42845
256.741	1610.58842
256.96	1569.45535
257.179	1436.06165
257.397	1390.92071
257.616	1311.62031
257.835	1229.53094
258.054	1112.71302
258.273	1022.54333
258.492	918.34844
258.711	815.26405
258.93	709.07983
259.148	616.63736
259.367	518.32156
259.586	444.19608
259.805	379.14647
260.023	350.22041
260.242	321.67488
260.461	311.11708
260.68	307.06273
260.898	315.92059
261.117	324.59757
261.336	357.02427
261.554	383.19207
261.773	442.02074
261.992	508.01547
262.21	587.47717
262.429	657.22825
262.648	714.60772
262.866	758.843
263.085	785.61831
263.303	798.19347
263.522	826.0137
263.74	839.57755
263.959	869.35471
264.178	914.65819
264.396	945.47229
264.615	968.23985
264.833	1026.8558
265.051	1005.58765
265.27	1001.35801
265.488	955.60484
265.707	931.42118
265.925	857.20652
266.144	812.34398
266.362	750.53108
266.58	720.85242
266.799	673.43457
267.017	635.94084
267.235	611.69266
267.454	598.72483
267.672	579.97209
267.89	582.06088
268.109	567.45831
268.327	574.31817
268.545	584.64345
268.763	596.0164
268.982	609.19365
269.2	620.48317
269.418	617.86192
269.636	623.0866
269.854	628.19894
270.073	631.55362
270.291	608.67038
270.509	604.81644
270.727	574.15536
270.945	548.92009
271.163	510.36596
271.381	497.2464
271.599	476.73898
271.817	459.54678
272.036	435.78602
272.254	425.25575
272.472	406.25688
272.69	396.68817
272.908	385.32277
273.126	393.14285
273.344	401.81371
273.562	412.95552
273.779	413.63836
273.997	423.34368
274.215	442.59031
274.433	451.66391
274.651	472.68308
274.869	496.36466
275.087	508.18611
275.305	516.15415
275.523	516.55789
275.74	526.10437
275.958	529.68673
276.176	523.82999
276.394	509.88044
276.612	511.65356
276.829	501.05253
277.047	503.97944
277.265	506.49897
277.483	513.98918
277.7	511.61793
277.918	516.70805
278.136	521.94928
278.353	530.75599
278.571	525.95429
278.789	532.89929
279.006	543.54812
279.224	532.64374
279.442	525.10771
279.659	518.53943
279.877	504.5564
280.094	499.98055
280.312	491.57747
280.529	480.55156
280.747	459.79749
280.964	450.37624
281.182	431.13615
281.399	430.27016
281.617	405.82538
281.834	398.90945
282.052	388.89136
282.269	379.59252
282.487	369.47299
282.704	366.20459
282.921	364.8649
283.139	363.82451
283.356	364.61577
283.574	361.85775
283.791	362.28681
284.008	348.69836
284.226	348.3432
284.443	345.79826
284.66	329.87706
284.877	319.36047
285.095	300.53884
285.312	287.25687
285.529	272.61521
285.746	260.66595
285.964	256.92838
286.181	253.38859
286.398	250.71789
286.615	250.74315
286.832	254.21195
287.05	260.3291
287.267	263.44836
287.484	278.09753
287.701	290.89198
287.918	302.12521
288.135	305.03782
288.352	315.2601
288.569	319.50161
288.786	321.01931
289.003	316.94548
289.22	311.49052
289.437	303.73753
289.654	295.96917
289.871	282.4625
290.088	276.55251
290.305	267.86538
290.522	263.13009
290.739	266.72242
290.956	265.25401
291.173	264.60728
291.39	268.62859
291.607	272.81914
291.824	278.22386
292.04	289.4533
292.257	299.47842
292.474	311.19762
292.691	324.20172
292.908	325.49269
293.125	329.51114
293.341	330.1535
293.558	327.99338
293.775	316.53489
293.992	309.74214
294.208	300.1456
294.425	295.32483
294.642	286.79159
294.858	282.86065
295.075	275.5665
295.292	273.54083
295.508	261.77981
295.725	255.43229
295.942	243.72017
296.158	236.52749
296.375	224.5761
296.591	213.40196
296.808	199.41224
297.024	188.82204
297.241	180.51232
297.458	175.60074
297.674	172.70023
297.891	174.37403
298.107	175.35201
298.323	178.37585
298.54	182.41797
298.756	192.27818
298.973	202.73158
299.189	211.17583
299.406	225.53094
299.622	232.89337
299.838	243.3751
300.055	244.76525
300.271	254.53556
300.487	254.53849
300.704	255.57475
300.92	252.51568
301.136	253.76946
301.353	259.43359
301.569	259.74242
301.785	256.16132
302.001	258.45568
302.218	258.36411
302.434	263.92606
302.65	265.26009
302.866	260.05399
303.083	262.67859
303.299	265.86978
303.515	262.22694
303.731	257.87603
303.947	255.2448
304.163	254.62472
304.379	253.503
304.595	250.64698
304.812	252.44291
305.028	253.76256
305.244	255.24486
305.46	260.10065
305.676	262.59311
305.892	268.89019
306.108	271.765
306.324	275.82085
306.54	280.06126
306.756	283.08326
306.972	288.03995
307.187	282.66996
307.403	284.19499
307.619	277.49587
307.835	273.55882
308.051	273.49879
308.267	266.12551
308.483	259.15249
308.699	248.0887
308.914	242.44929
309.13	233.5302
309.346	225.38992
309.562	217.87975
309.778	214.00702
309.993	208.38355
310.209	205.08737
310.425	199.46544
310.641	195.99225
310.856	192.23366
311.072	185.67645
311.288	184.79403
311.503	180.90481
311.719	182.33619
311.935	183.24415
312.15	185.38245
312.366	188.89692
312.581	195.34896
312.797	201.47747
313.013	212.22222
313.228	223.96749
313.444	230.85227
313.659	245.65627
313.875	254.12787
314.09	263.91331
314.306	262.19958
314.521	260.67427
314.737	262.49922
314.952	265.31098
315.168	263.01572
315.383	261.84038
315.599	268.64585
315.814	266.05041
316.029	270.63412
316.245	275.94065
316.46	275.15304
316.675	280.09864
316.891	282.25329
317.106	283.45991
317.321	288.38843
317.537	287.53098
317.752	292.99918
317.967	290.35868
318.183	291.45996
318.398	290.69709
318.613	292.37152
318.828	300.03307
319.043	298.16271
319.259	297.40616
319.474	295.26516
319.689	295.18219
319.904	293.79386
320.119	298.71506
320.334	299.947
320.549	302.23218
320.765	306.1517
320.98	310.57259
321.195	316.14255
321.41	314.65978
321.625	319.04329
321.84	316.41428
322.055	317.21609
322.27	307.94746
322.485	307.63216
322.7	302.92314
322.915	296.11139
323.13	289.37885
323.345	278.42356
323.56	272.76196
323.775	262.94322
323.989	261.04756
324.204	255.23995
324.419	251.76819
324.634	248.69172
324.849	244.82508
325.064	249.3048
325.279	243.65438
325.493	247.30886
325.708	249.42795
325.923	245.23233
326.138	247.20806
326.352	247.08266
326.567	246.10508
326.782	247.6893
326.997	245.21676
327.211	248.23886
327.426	252.78374
327.641	254.82126
327.855	255.41671
328.07	266.8896
328.285	272.5452
328.499	278.30874
328.714	284.88833
328.928	287.23751
329.143	290.57865
329.358	292.8113
329.572	293.60634
329.787	293.18425
330.001	295.53504
330.216	295.75232
330.43	297.05787
330.645	293.70598
330.859	293.3914
331.074	293.05269
331.288	293.57076
331.503	292.87208
331.717	290.73266
331.931	285.61262
332.146	283.74776
332.36	285.863
332.575	277.61817
332.789	277.55308
333.003	279.50058
333.218	277.46018
333.432	278.37322
333.646	283.00837
333.86	285.69079
334.075	291.15228
334.289	297.03203
334.503	301.04845
334.717	303.33698
334.932	305.60897
335.146	296.57775
335.36	295.28775
335.574	287.82291
335.788	285.08464
336.003	283.46941
336.217	280.03424
336.431	270.14611
336.645	262.60351
336.859	257.55326
337.073	254.47297
337.287	250.52832
337.501	245.16021
337.715	241.42211
337.929	233.55361
338.143	228.52234
338.357	229.72117
338.571	227.43654
338.785	228.52022
338.999	232.44371
339.213	238.21758
339.427	241.90761
339.641	247.81704
339.855	249.891
340.069	253.59013
340.283	251.72289
340.497	254.98988
340.711	254.46559
340.924	254.32047
341.138	246.5924
341.352	245.52858
341.566	241.5522
341.78	242.09252
341.993	241.99543
342.207	239.52878
342.421	241.0903
342.635	238.29116
342.848	240.43983
343.062	241.14901
343.276	242.81707
343.49	243.54969
343.703	240.87233
343.917	235.03488
344.131	237.86361
344.344	232.98287
344.558	227.28693
344.771	225.38382
344.985	221.43267
345.199	219.04355
345.412	214.8905
345.626	217.55275
345.839	214.0338
346.053	218.75545
346.266	219.65224
346.48	221.09094
346.693	222.83114
346.907	232.90256
347.12	230.90606
347.334	239.39387
347.547	243.2141
347.76	250.7701
347.974	251.51727
348.187	255.73971
348.401	260.53866
348.614	259.02516
348.827	259.00015
349.041	254.36308
349.254	250.10843
349.467	252.53131
349.681	245.34424
349.894	243.56155
350.107	236.88232
350.32	239.3589
350.534	239.0581
350.747	234.68454
350.96	235.75579
351.173	234.74381
351.386	238.26987
351.6	241.06896
351.813	243.10466
352.026	245.1847
352.239	244.84691
352.452	243.88006
352.665	244.40274
352.878	239.21564
353.092	237.4196
353.305	235.51116
353.518	234.40044
353.731	228.90211
353.944	230.65935
354.157	229.02101
354.37	221.42039
354.583	224.78743
354.796	215.29654
355.009	218.96329
355.222	214.00968
355.435	211.97726
355.647	206.77023
355.86	210.88907
356.073	204.90383
356.286	204.57313
356.499	198.07386
356.712	193.475
356.925	191.26859
357.138	188.49355
357.35	181.84684
357.563	183.4304
357.776	178.76968
357.989	181.31206
358.201	180.57039
358.414	179.55069
358.627	180.37696
358.84	184.09611
359.052	185.11901
359.265	185.40747
359.478	186.44406
359.69	185.77112
359.903	183.09405
360.116	177.69786
360.328	170.9311
360.541	167.71003
360.753	161.52672
360.966	154.81043
361.179	146.72454
361.391	142.1013
361.604	135.47261
361.816	133.36083
362.029	132.97089
362.241	133.75879
362.454	136.54052
362.666	138.67154
362.879	143.58386
363.091	146.18981
363.304	151.94511
363.516	157.77422
363.728	165.37269
363.941	170.82479
364.153	175.66643
364.366	173.59926
364.578	176.94274
364.79	179.66165
365.003	180.77678
365.215	179.78957
365.427	182.50398
365.639	183.27596
365.852	186.00057
366.064	187.87884
366.276	188.44151
366.488	188.56153
366.701	186.28565
366.913	187.9419
367.125	187.05443
367.337	189.95655
367.549	188.74104
367.762	191.40816
367.974	194.50566
368.186	197.03823
368.398	201.8533
368.61	204.60593
368.822	205.29095
369.034	207.40612
369.246	210.92972
369.458	211.76461
369.67	207.59347
369.882	211.05779
370.094	207.36678
370.306	207.98628
370.518	203.7712
370.73	198.59365
370.942	194.63107
371.154	192.51567
371.366	190.35919
371.578	190.3897
371.79	188.20414
372.002	186.88052
372.214	185.46216
372.425	186.79086
372.637	187.6388
372.849	193.93307
373.061	194.96156
373.273	200.0766
373.484	203.8593
373.696	207.80906
373.908	207.43291
374.12	208.24984
374.331	208.35473
374.543	207.2974
374.755	208.28426
374.967	207.87677
375.178	199.07071
375.39	205.49198
375.602	198.82904
375.813	197.68182
376.025	194.75125
376.236	191.91663
376.448	188.63282
376.66	185.96907
376.871	180.29369
377.083	179.87851
377.294	176.94582
377.506	176.51877
377.717	175.26908
377.929	174.16065
378.14	176.81179
378.352	177.97467
378.563	180.38482
378.775	181.69121
378.986	187.33692
379.197	192.22139
379.409	193.65511
379.62	195.873
379.832	197.23855
380.043	197.46155
380.254	193.4368
380.466	196.65831
380.677	197.30944
380.888	193.76846
381.1	190.92509
381.311	194.25048
381.522	192.17374
381.733	196.27822
381.945	196.61057
382.156	198.3299
382.367	200.64003
382.578	198.32303
382.789	196.71663
383.001	197.81002
383.212	197.05923
383.423	195.58963
383.634	189.91661
383.845	188.43193
384.056	184.60371
384.267	186.1401
384.478	185.10819
384.69	180.04759
384.901	179.82173
385.112	182.8316
385.323	179.66841
385.534	179.80345
385.745	179.10014
385.956	178.27978
386.167	180.09206
386.378	181.14358
386.588	180.81876
386.799	178.59665
387.01	181.27479
387.221	180.94005
387.432	180.3372
387.643	184.20046
387.854	180.5803
388.065	181.60349
388.275	182.74308
388.486	185.76954
388.697	185.01806
388.908	185.92113
389.119	186.61995
389.329	191.72126
389.54	188.03669
389.751	186.28759
389.962	188.13635
390.172	182.58085
390.383	182.70585
390.594	176.24045
390.804	172.23488
391.015	172.96497
391.226	165.55467
391.436	163.07994
391.647	158.84169
391.858	160.16369
392.068	158.9699
392.279	156.97366
392.489	156.98073
392.7	158.82837
392.91	157.45326
393.121	161.70404
393.331	161.8378
393.542	162.28324
393.752	161.19856
393.963	159.31716
394.173	157.2531
394.384	160.59124
394.594	156.27238
394.804	157.57335
395.015	157.78616
395.225	162.84303
395.436	162.89179
395.646	167.1823
395.856	168.86515
396.067	172.19741
396.277	176.99408
396.487	182.63275
396.697	179.69339
396.908	184.36518
397.118	186.61777
397.328	187.19706
397.538	186.3071
397.749	184.3128
397.959	184.42741
398.169	183.62837
398.379	177.60839
398.589	179.7967
398.8	176.15444
399.01	177.01973
399.22	179.30504
399.43	177.88983
399.64	178.18616
399.85	180.7664
400.06	178.3321
400.27	179.66873
400.48	183.93804
400.69	185.06689
400.9	183.2708
401.11	188.3705
401.32	188.87285
401.53	186.24531
401.74	187.75746
401.95	188.31787
402.16	184.94477
402.37	189.85873
402.58	179.38178
402.79	179.03165
403	176.66712
403.209	174.58288
403.419	168.17767
403.629	167.58056
403.839	164.36582
404.049	159.37765
404.258	157.30555
404.468	155.56525
404.678	153.41729
404.888	152.69097
405.097	151.38532
