Data from WindowProjectSample3_Transmission__40__00040.txt Node

Date: Sun May 04 11:06:49 EDT 2025
User: jessi
Spectrometer: SR400872
Trigger mode: 0
Integration Time (sec): 5.000050E-1
Scans to average: 20
Electric dark correction enabled: true
Nonlinearity correction enabled: true
Boxcar width: 0
XAxis mode: Wavelengths
Number of Pixels in Spectrum: 3648
>>>>>Begin Spectral Data<<<<<
184.909	-1282.72984
185.132	-1476.82388
185.355	-1155.26247
185.578	-1055.23615
185.801	1168.63118
186.024	-946.54219
186.247	-4927.04954
186.47	-1846.09174
186.693	-407.98713
186.916	-468.99925
187.139	-801.29108
187.362	-2794.0884
187.585	-717.20309
187.808	-5079.00037
188.031	8928.13024
188.254	-2268.28116
188.476	-8476.56545
188.699	-1029.00329
188.922	632.83022
189.145	-1229.35483
189.368	3327.85483
189.591	-2277.15389
189.813	-1418.50923
190.036	-884.50155
190.259	-1162.11424
190.482	-1629.90508
190.705	-2317.97075
190.927	-704.65498
191.15	-1527.15576
191.373	-1059.52827
191.595	-1266.90859
191.818	-1305.02514
192.041	-621.52566
192.263	-1123.23065
192.486	-604.73867
192.709	-1562.69569
192.931	-3255.99814
193.154	-1160.92466
193.377	-1641.60208
193.599	-3389.8475
193.822	-3654.60915
194.044	-3131.15323
194.267	-1799.78225
194.489	-2.83872
194.712	-953.97451
194.934	-1710.41254
195.157	-689.91035
195.379	-1236.76791
195.602	-863.5757
195.824	-1356.22372
196.047	-2083.80472
196.269	-1076.64809
196.492	-1392.7775
196.714	-1265.20414
196.936	-1247.52535
197.159	-902.63013
197.381	-746.16608
197.604	-430.86002
197.826	-2068.7583
198.048	-1123.17161
198.271	-1629.31768
198.493	-1194.79439
198.715	-928.40927
198.938	-3232.60571
199.16	-4111.11606
199.382	-1239.65318
199.604	-1209.08476
199.827	-1913.06804
200.049	-1705.29151
200.271	-1230.03124
200.493	-1395.68854
200.715	-985.2446
200.938	-856.27621
201.16	-930.69906
201.382	-1012.73577
201.604	-1243.16932
201.826	-722.27703
202.048	-806.04267
202.27	-1416.37021
202.492	-1462.50601
202.715	-1917.95517
202.937	-2047.76889
203.159	-1344.19527
203.381	-1550.62159
203.603	-993.04139
203.825	-5255.52099
204.047	-1607.56516
204.269	-1396.81094
204.491	-1252.0786
204.713	-1517.97204
204.935	-1441.61696
205.156	-2725.83895
205.378	-2918.09561
205.6	-1551.35072
205.822	-1101.40356
206.044	1387.51006
206.266	-1312.35068
206.488	-935.4823
206.71	-1712.84331
206.932	-1843.14985
207.153	-1108.90792
207.375	-1399.64202
207.597	-1100.91604
207.819	-1125.41735
208.041	-1209.65499
208.262	-1648.56707
208.484	-867.2537
208.706	-2178.80968
208.927	-780.36435
209.149	-1362.94788
209.371	-1212.32366
209.593	-1463.39708
209.814	-576.93993
210.036	-939.1433
210.258	-787.60539
210.479	-1009.3405
210.701	-1809.33263
210.922	-1240.69549
211.144	-998.3125
211.366	-1111.28933
211.587	881.22255
211.809	-1122.139
212.03	-6377.08088
212.252	942.12066
212.473	-918.96599
212.695	-19520.69569
212.916	-3354.92998
213.138	-1505.42321
213.359	-940.87827
213.581	-1489.58322
213.802	-850.3457
214.024	-1357.34271
214.245	-11348.75353
214.466	-694.51924
214.688	-1468.28627
214.909	-1062.71437
215.131	-2670.49588
215.352	-3553.05683
215.573	-1068.55284
215.795	-1843.99654
216.016	-1476.70387
216.237	-3089.90771
216.459	-1404.81368
216.68	-1067.15903
216.901	-1499.96341
217.122	11955.96599
217.344	-987.14142
217.565	-1350.79646
217.786	-1340.02118
218.007	-904.99386
218.228	-1269.15418
218.45	-1156.00075
218.671	-1131.36261
218.892	-1005.53706
219.113	-1553.91142
219.334	-99.67147
219.555	-1473.80677
219.776	-1574.27851
219.997	-1258.43357
220.219	17987.44339
220.44	-1196.71258
220.661	-3399.40028
220.882	-958.99307
221.103	1633.12231
221.324	-2781.11357
221.545	-1151.70903
221.766	-1315.17632
221.987	-1898.95963
222.208	-2065.42333
222.429	-761.37613
222.65	-1074.61732
222.87	-1648.31322
223.091	-3625.04078
223.312	2887.21464
223.533	-1157.16807
223.754	-1552.01839
223.975	-2244.69795
224.196	9018.13838
224.417	-7945.55542
224.637	4320.23912
224.858	135.33128
225.079	-1921.97344
225.3	26088.49975
225.521	-1023.91967
225.741	-5228.45501
225.962	7082.94558
226.183	322.10277
226.404	-3630.14132
226.624	2423.41994
226.845	-82653.50205
227.066	-647322.2892
227.286	887.95093
227.507	309.0046
227.728	284.17437
227.948	673.82126
228.169	171.2721
228.389	176.92175
228.61	103.24653
228.831	129.33095
229.051	11.63285
229.272	72.2882
229.492	104.15635
229.713	29.45415
229.933	70.83351
230.154	63.09773
230.374	100.93859
230.595	71.44751
230.815	41.23329
231.036	77.02433
231.256	-10.90812
231.477	128.03512
231.697	75.08815
231.917	80.42147
232.138	118.75146
232.358	238.28943
232.579	189.35927
232.799	32.74409
233.019	196.11622
233.24	230.03889
233.46	82.72264
233.68	118.35093
233.901	76.00417
234.121	53.55901
234.341	24.96334
234.561	-6.20375
234.782	38.10857
235.002	132.30764
235.222	3.1176
235.442	123.7634
235.662	57.917
235.883	114.86139
236.103	96.78368
236.323	60.92571
236.543	50.63215
236.763	75.68749
236.983	83.00431
237.203	82.29199
237.423	113.38663
237.643	171.91526
237.864	152.02003
238.084	37.569
238.304	48.42437
238.524	83.27738
238.744	75.21225
238.964	131.88338
239.184	114.64685
239.404	124.23667
239.624	65.01515
239.843	112.53456
240.063	64.34948
240.283	43.20104
240.503	46.4342
240.723	44.68591
240.943	27.71595
241.163	35.80597
241.383	17.33504
241.603	12.82263
241.822	15.04644
242.042	10.6266
242.262	14.20448
242.482	15.59462
242.702	16.61035
242.921	5.46917
243.141	11.46355
243.361	10.5054
243.581	15.32606
243.8	12.2984
244.02	8.44493
244.24	15.18465
244.459	14.02884
244.679	29.69126
244.899	18.41056
245.118	22.60404
245.338	21.14737
245.558	23.13204
245.777	14.07322
245.997	17.37113
246.216	17.86613
246.436	9.96434
246.655	7.31833
246.875	5.75016
247.094	10.31893
247.314	3.81346
247.533	6.13801
247.753	6.8319
247.972	5.51854
248.192	2.47965
248.411	3.48041
248.631	5.51539
248.85	6.69074
249.07	6.81355
249.289	9.62517
249.508	6.75914
249.728	11.51212
249.947	11.43461
250.166	14.88168
250.386	7.61048
250.605	10.86058
250.824	18.88898
251.044	13.03118
251.263	39.7293
251.482	22.6346
251.701	19.26347
251.921	0.47553
252.14	5.89659
252.359	7.38834
252.578	16.39231
252.798	5.95245
253.017	14.1759
253.236	7.48407
253.455	8.31594
253.674	18.44555
253.893	8.26687
254.112	13.16219
254.331	19.3143
254.551	16.04995
254.77	8.57639
254.989	22.06438
255.208	17.67763
255.427	26.57995
255.646	23.02249
255.865	33.23232
256.084	14.90716
256.303	18.52314
256.522	22.30715
256.741	5.99324
256.96	5.97758
257.179	15.07145
257.397	18.67199
257.616	9.91108
257.835	10.69831
258.054	24.66028
258.273	17.42201
258.492	17.09648
258.711	10.993
258.93	5.14609
259.148	7.58561
259.367	7.09425
259.586	9.45418
259.805	4.17189
260.023	7.70061
260.242	5.61259
260.461	4.42952
260.68	2.45958
260.898	6.4707
261.117	2.33076
261.336	1.59089
261.554	5.47583
261.773	5.40943
261.992	1.69203
262.21	5.55239
262.429	6.2493
262.648	11.01137
262.866	12.98756
263.085	8.99696
263.303	8.11199
263.522	14.42884
263.74	13.79222
263.959	24.12691
264.178	12.76708
264.396	11.06166
264.615	7.95845
264.833	18.16946
265.051	15.3701
265.27	17.57659
265.488	18.14681
265.707	10.46577
265.925	17.66194
266.144	9.00752
266.362	9.54572
266.58	9.8861
266.799	7.91681
267.017	9.5391
267.235	8.80605
267.454	5.76496
267.672	2.96973
267.89	7.2325
268.109	7.33909
268.327	7.42545
268.545	1.60979
268.763	6.80936
268.982	3.21244
269.2	7.73134
269.418	5.34366
269.636	4.35081
269.854	7.45738
270.073	5.50767
270.291	3.41778
270.509	3.09293
270.727	7.32758
270.945	11.79603
271.163	11.71672
271.381	2.68274
271.599	5.11323
271.817	8.06582
272.036	3.13922
272.254	5.6906
272.472	4.12186
272.69	4.09435
272.908	4.10171
273.126	6.33576
273.344	8.40691
273.562	2.91535
273.779	4.43823
273.997	6.8261
274.215	6.42049
274.433	4.85208
274.651	7.37484
274.869	7.26798
275.087	4.50508
275.305	6.39157
275.523	4.47366
275.74	4.90608
275.958	8.87225
276.176	12.77281
276.394	4.12833
276.612	5.60819
276.829	5.32921
277.047	4.8125
277.265	5.04929
277.483	5.51271
277.7	6.60629
277.918	5.74577
278.136	10.38472
278.353	5.14301
278.571	2.95087
278.789	8.07073
279.006	2.15005
279.224	4.72939
279.442	7.92909
279.659	5.87333
279.877	3.91921
280.094	8.6886
280.312	1.9647
280.529	5.93745
280.747	2.09068
280.964	4.82091
281.182	9.15472
281.399	4.88492
281.617	5.95655
281.834	4.40638
282.052	3.06104
282.269	5.2193
282.487	4.48592
282.704	3.83317
282.921	3.61576
283.139	5.47006
283.356	6.82164
283.574	6.62284
283.791	3.15714
284.008	8.50937
284.226	5.00653
284.443	5.65654
284.66	7.06141
284.877	5.95381
285.095	3.67364
285.312	2.72133
285.529	1.80362
285.746	1.56579
285.964	3.6161
286.181	2.26591
286.398	3.24759
286.615	4.4227
286.832	4.23242
287.05	1.03043
287.267	3.01099
287.484	3.08339
287.701	4.58376
287.918	4.19028
288.135	4.36337
288.352	2.04798
288.569	2.48552
288.786	4.26008
289.003	3.16005
289.22	5.02247
289.437	2.88334
289.654	4.71015
289.871	4.88665
290.088	4.76831
290.305	3.87453
290.522	3.21919
290.739	3.35871
290.956	4.97435
291.173	5.94376
291.39	5.5073
291.607	3.6916
291.824	3.14252
292.04	2.28047
292.257	4.87403
292.474	5.3937
292.691	3.61887
292.908	1.75581
293.125	3.06405
293.341	1.91429
293.558	8.08704
293.775	3.58292
293.992	3.53166
294.208	1.45113
294.425	2.36251
294.642	2.92576
294.858	5.05186
295.075	1.22336
295.292	3.36141
295.508	4.15354
295.725	5.80195
295.942	2.94509
296.158	2.23174
296.375	3.59413
296.591	2.88483
296.808	2.79606
297.024	3.41236
297.241	3.69885
297.458	3.93891
297.674	0.62654
297.891	3.21792
298.107	2.52764
298.323	1.9729
298.54	4.53763
298.756	2.35264
298.973	1.15212
299.189	4.88336
299.406	2.30009
299.622	4.96151
299.838	4.93972
300.055	4.5423
300.271	1.31949
300.487	2.09551
300.704	2.36513
300.92	1.66759
301.136	6.51798
301.353	5.15844
301.569	3.73867
301.785	4.00407
302.001	4.57474
302.218	4.30802
302.434	4.70935
302.65	1.92514
302.866	3.00131
303.083	7.09261
303.299	6.93647
303.515	3.86015
303.731	4.157
303.947	1.90545
304.163	2.90386
304.379	4.05935
304.595	4.38073
304.812	2.87931
305.028	2.7749
305.244	3.1076
305.46	4.66605
305.676	5.13086
305.892	5.91144
306.108	4.69046
306.324	3.53326
306.54	6.81239
306.756	4.57757
306.972	4.41335
307.187	3.65946
307.403	6.39286
307.619	3.16176
307.835	5.68665
308.051	5.92505
308.267	2.74406
308.483	5.71582
308.699	4.82619
308.914	3.88986
309.13	3.99573
309.346	1.82673
309.562	2.63932
309.778	1.8904
309.993	4.81043
310.209	4.08771
310.425	2.17031
310.641	3.51158
310.856	2.70177
311.072	2.51566
311.288	3.77641
311.503	4.04092
311.719	1.59597
311.935	1.45104
312.15	4.43896
312.366	4.12691
312.581	4.59778
312.797	3.94627
313.013	5.0043
313.228	3.02007
313.444	3.8035
313.659	2.68581
313.875	4.54775
314.09	3.82629
314.306	6.1447
314.521	5.06313
314.737	5.16406
314.952	4.47887
315.168	4.49797
315.383	4.653
315.599	3.94196
315.814	3.77152
316.029	5.61186
316.245	2.36332
316.46	1.88764
316.675	6.02253
316.891	7.05636
317.106	8.68625
317.321	5.04028
317.537	4.92778
317.752	5.46562
317.967	5.51045
318.183	3.42257
318.398	3.85246
318.613	5.97459
318.828	6.52733
319.043	5.74158
319.259	3.95368
319.474	4.66807
319.689	6.26227
319.904	1.68472
320.119	5.75291
320.334	4.89012
320.549	4.1742
320.765	6.29098
320.98	4.90336
321.195	5.70102
321.41	4.69305
321.625	5.87362
321.84	7.31595
322.055	7.30156
322.27	3.59874
322.485	3.00304
322.7	5.04772
322.915	6.29851
323.13	3.47659
323.345	6.9165
323.56	5.52647
323.775	5.70474
323.989	5.53471
324.204	5.00031
324.419	5.96359
324.634	2.75966
324.849	4.33235
325.064	7.71056
325.279	6.0834
325.493	5.38693
325.708	6.09357
325.923	3.49452
326.138	3.82641
326.352	7.17227
326.567	5.8452
326.782	4.15503
326.997	3.62224
327.211	5.71144
327.426	5.16983
327.641	4.26089
327.855	2.21693
328.07	5.60076
328.285	7.46837
328.499	4.29775
328.714	5.21972
328.928	5.79084
329.143	4.98394
329.358	6.71905
329.572	6.3991
329.787	6.86098
330.001	9.06243
330.216	2.92658
330.43	7.77991
330.645	7.41357
330.859	6.36562
331.074	3.78314
331.288	4.87162
331.503	7.54961
331.717	3.36123
331.931	4.87337
332.146	5.29724
332.36	8.0855
332.575	5.72339
332.789	5.25696
333.003	5.03763
333.218	5.84124
333.432	4.0506
333.646	6.50263
333.86	7.59686
334.075	8.10579
334.289	4.32279
334.503	3.39294
334.717	5.92849
334.932	5.57599
335.146	6.19822
335.36	4.19829
335.574	5.55007
335.788	5.38189
336.003	6.30957
336.217	6.26088
336.431	5.80327
336.645	4.62404
336.859	3.71151
337.073	5.37282
337.287	5.89106
337.501	3.9663
337.715	6.16925
337.929	6.33418
338.143	3.5983
338.357	4.94313
338.571	4.33486
338.785	6.16963
338.999	4.3411
339.213	4.359
339.427	3.27525
339.641	6.94968
339.855	4.32962
340.069	4.01645
340.283	6.6517
340.497	7.48467
340.711	6.06686
340.924	5.02264
341.138	3.79841
341.352	3.34231
341.566	5.21811
341.78	2.74722
341.993	4.39263
342.207	4.0323
342.421	5.77661
342.635	4.92476
342.848	4.34828
343.062	2.03386
343.276	4.16546
343.49	8.22468
343.703	4.44821
343.917	6.59931
344.131	6.59436
344.344	4.34881
344.558	4.47498
344.771	3.66119
344.985	6.74129
345.199	7.74811
345.412	5.7081
345.626	5.74082
345.839	2.785
346.053	3.71227
346.266	3.8333
346.48	6.00616
346.693	5.57864
346.907	5.89224
347.12	3.90636
347.334	5.41145
347.547	5.76383
347.76	5.01856
347.974	6.82809
348.187	5.5548
348.401	4.98335
348.614	4.24902
348.827	4.80918
349.041	6.17434
349.254	2.89473
349.467	5.1197
349.681	3.98868
349.894	4.48653
350.107	7.10221
350.32	8.16589
350.534	3.15721
350.747	4.75167
350.96	3.97174
351.173	4.19481
351.386	4.53047
351.6	4.42213
351.813	4.64398
352.026	5.13184
352.239	3.7122
352.452	4.99
352.665	6.88952
352.878	4.81491
353.092	8.26167
353.305	6.2395
353.518	5.23079
353.731	4.19055
353.944	6.62451
354.157	4.62755
354.37	4.42987
354.583	3.87887
354.796	3.36033
355.009	6.80543
355.222	5.45162
355.435	5.25078
355.647	6.83589
355.86	4.09406
356.073	5.29477
356.286	4.72547
356.499	6.49175
356.712	6.34062
356.925	5.92246
357.138	6.71165
357.35	4.06679
357.563	4.76859
357.776	5.33448
357.989	5.3017
358.201	5.93778
358.414	5.75265
358.627	6.75341
358.84	5.06954
359.052	3.80921
359.265	4.20359
359.478	6.44327
359.69	2.23044
359.903	6.60832
360.116	6.68011
360.328	3.51019
360.541	6.52859
360.753	4.70606
360.966	4.99015
361.179	5.30628
361.391	5.00847
361.604	4.44954
361.816	4.85674
362.029	4.76819
362.241	4.2364
362.454	4.98616
362.666	4.40276
362.879	5.64474
363.091	4.85346
363.304	4.41662
363.516	5.04152
363.728	3.9051
363.941	6.00461
364.153	5.21768
364.366	2.90293
364.578	4.07281
364.79	5.99163
365.003	5.45712
365.215	4.81265
365.427	6.14571
365.639	6.84552
365.852	5.6539
366.064	7.36662
366.276	5.01477
366.488	5.90721
366.701	5.30131
366.913	5.15925
367.125	5.33474
367.337	4.79232
367.549	4.90265
367.762	5.37296
367.974	5.31303
368.186	5.03768
368.398	6.6518
368.61	6.32844
368.822	6.437
369.034	5.37697
369.246	6.60972
369.458	8.92203
369.67	4.66597
369.882	8.21689
370.094	3.32464
370.306	7.64042
370.518	5.28188
370.73	5.27337
370.942	5.19925
371.154	5.76408
371.366	5.44278
371.578	6.48851
371.79	5.37604
372.002	7.12769
372.214	8.27994
372.425	6.03385
372.637	7.64398
372.849	6.34991
373.061	3.34745
373.273	6.59803
373.484	6.45099
373.696	6.9479
373.908	3.35153
374.12	7.4249
374.331	6.64702
374.543	5.17772
374.755	4.91129
374.967	6.32842
375.178	7.38822
375.39	5.85002
375.602	6.29862
375.813	4.58727
376.025	5.04357
376.236	6.19571
376.448	6.66284
376.66	6.08913
376.871	6.0591
377.083	7.43158
377.294	8.14926
377.506	5.71925
377.717	8.00172
377.929	6.58462
378.14	5.79468
378.352	7.11918
378.563	7.10084
378.775	7.88037
378.986	5.39624
379.197	6.34226
379.409	5.52948
379.62	7.4152
379.832	6.83945
380.043	6.42247
380.254	6.99859
380.466	5.11375
380.677	9.90357
380.888	9.17308
381.1	9.87075
381.311	9.89677
381.522	7.0107
381.733	10.26843
381.945	6.61183
382.156	6.73025
382.367	6.27525
382.578	10.21803
382.789	10.55125
383.001	6.25774
383.212	9.12964
383.423	9.21237
383.634	8.48079
383.845	7.98944
384.056	6.75745
384.267	7.2849
384.478	7.24372
384.69	5.87065
384.901	7.89419
385.112	7.56997
385.323	9.60118
385.534	7.65989
385.745	7.78138
385.956	7.89152
386.167	6.33127
386.378	8.1942
386.588	6.39795
386.799	6.57959
387.01	5.90395
387.221	8.59698
387.432	7.5362
387.643	9.74428
387.854	7.20334
388.065	7.18906
388.275	7.44409
388.486	6.99289
388.697	7.70134
388.908	7.24856
389.119	9.09338
389.329	9.75907
389.54	8.00032
389.751	8.45483
389.962	9.43483
390.172	8.17728
390.383	7.676
390.594	7.49077
390.804	7.37035
391.015	7.78152
391.226	8.38021
391.436	9.00989
391.647	8.56289
391.858	9.00506
392.068	6.50824
392.279	7.08407
392.489	8.5789
392.7	9.25088
392.91	7.35337
393.121	7.41766
393.331	8.87775
393.542	9.83164
393.752	9.01135
393.963	9.01687
394.173	8.91349
394.384	9.33106
394.594	8.67012
394.804	7.36168
395.015	8.70723
395.225	9.25996
395.436	7.19653
395.646	9.0256
395.856	8.01903
396.067	6.99324
396.277	9.51815
396.487	9.20668
396.697	9.02496
396.908	9.56533
397.118	9.55522
397.328	9.02367
397.538	9.91843
397.749	8.15459
397.959	10.08606
398.169	9.52895
398.379	7.46813
398.589	9.55929
398.8	9.40554
399.01	9.42077
399.22	8.61661
399.43	11.49695
399.64	9.07588
399.85	9.56022
400.06	9.19919
400.27	8.25589
400.48	8.97932
400.69	10.62976
400.9	8.47466
401.11	8.03235
401.32	10.1234
401.53	8.62763
401.74	11.15043
401.95	9.92387
402.16	8.80404
402.37	10.0228
402.58	8.9319
402.79	10.06484
403	10.63542
403.209	8.86178
403.419	10.79652
403.629	9.01338
403.839	10.83741
404.049	10.74123
404.258	9.31175
404.468	8.76823
404.678	10.5767
404.888	10.85507
405.097	9.27422
405.307	9.63662
405.517	10.39963
405.727	10.09408
405.936	9.28149
406.146	9.79314
406.356	11.12369
406.565	9.69892
406.775	9.10483
406.984	9.15097
407.194	11.69455
407.404	9.66097
407.613	10.18277
407.823	10.5475
408.032	11.23472
408.242	10.97218
408.451	9.30204
408.661	9.67491
408.87	12.03226
409.08	9.44531
409.289	10.5691
409.499	10.47219
409.708	10.39375
409.918	8.07503
410.127	10.398
410.336	11.8779
410.546	10.84929
410.755	9.73841
410.964	9.59708
411.174	9.14295
411.383	10.62078
411.592	10.35856
411.802	8.95173
412.011	10.99902
412.22	10.14329
412.429	11.38941
412.639	11.75075
412.848	11.52785
413.057	12.26854
413.266	11.5662
413.475	10.48248
413.685	11.0813
413.894	11.54753
414.103	11.72711
414.312	11.39639
414.521	10.37334
414.73	10.91627
414.939	12.66667
415.148	11.4281
415.357	11.09976
415.566	10.72761
415.776	10.65167
415.985	10.60673
416.194	11.77575
416.403	12.98651
416.611	9.9798
416.82	10.78112
417.029	11.27792
417.238	10.81313
417.447	10.51329
417.656	11.02841
417.865	10.72572
418.074	11.20865
418.283	11.35695
418.492	12.5538
418.7	12.09068
418.909	13.09831
419.118	11.65423
419.327	12.00586
419.536	11.63745
419.744	11.27859
419.953	12.6179
420.162	12.51791
420.371	11.23696
420.579	11.06537
420.788	12.12648
420.997	12.12934
421.205	11.94118
421.414	11.54183
421.623	11.42918
421.831	10.95477
422.04	11.82983
422.249	10.87903
422.457	11.6153
422.666	11.03624
422.874	12.15349
423.083	12.32985
423.291	12.36757
423.5	12.09594
423.708	12.05281
423.917	12.64303
424.125	11.83088
424.334	11.59081
424.542	13.46175
