Data from WindowProjectSample_Transmission__27__00027.txt Node

Date: Sat May 03 15:28:06 EDT 2025
User: jessi
Spectrometer: SR400872
Trigger mode: 0
Integration Time (sec): 5.000010E-1
Scans to average: 6
Electric dark correction enabled: true
Nonlinearity correction enabled: true
Boxcar width: 0
XAxis mode: Wavelengths
Number of Pixels in Spectrum: 3648
>>>>>Begin Spectral Data<<<<<
184.909	18222.35142
185.132	2639.89022
185.355	22920.91852
185.578	-7989.04356
185.801	57.3549
186.024	-1449.25422
186.247	874.03934
186.47	1940.63146
186.693	-227.47186
186.916	-1745.37519
187.139	-2691.41665
187.362	1557.85723
187.585	2701.58788
187.808	-3682.53122
188.031	903.7617
188.254	-1399.61777
188.476	-898.7217
188.699	2793.09056
188.922	-805.91825
189.145	-9816.74272
189.368	-338.69589
189.591	-1125.63997
189.813	-1780.66435
190.036	1241.42028
190.259	1866.01397
190.482	593.9455
190.705	10642.60468
190.927	-1033.84228
191.15	3627.34922
191.373	2422.49973
191.595	-2456.66701
191.818	2581.10928
192.041	-299.90243
192.263	2623.15552
192.486	1887.86872
192.709	-5693.01572
192.931	3093.58251
193.154	-6476.01071
193.377	195315.5696
193.599	1516.0359
193.822	1998.09763
194.044	-2381.06568
194.267	493.99794
194.489	-41.69807
194.712	1413.32876
194.934	3397.67139
195.157	-13441.94296
195.379	892.89855
195.602	2498.72393
195.824	2035.29404
196.047	2244.81403
196.269	3062.02513
196.492	3644.9897
196.714	2924.19815
196.936	1200.26664
197.159	1382.16484
197.381	-2215.93326
197.604	-1360.60758
197.826	6431.05608
198.048	3159.02688
198.271	4107.07048
198.493	2229.40468
198.715	-5970.27188
198.938	-646.56966
199.16	1768.96521
199.382	1467.83689
199.604	-683.57123
199.827	9029.19886
200.049	1101.45835
200.271	-3293.07255
200.493	-50825.42102
200.715	2212.86297
200.938	6832.90887
201.16	-7328.05429
201.382	-2799.31666
201.604	-1939.1804
201.826	6876.96207
202.048	872.41744
202.27	-17876.88995
202.492	4787.62065
202.715	-1107.14179
202.937	4806.52412
203.159	-2384.23464
203.381	890.44513
203.603	-3907.97939
203.825	-2787.70586
204.047	3459.09787
204.269	-2102.5821
204.491	2342.89127
204.713	1957.49197
204.935	15549.88447
205.156	1924.71487
205.378	-8305.11119
205.6	-4648.23587
205.822	9219.54165
206.044	-773.72516
206.266	3988.99215
206.488	1110.19778
206.71	29709.93947
206.932	2479.21066
207.153	-4805.91401
207.375	-1915.20038
207.597	8943.39074
207.819	4310.92649
208.041	2246.3112
208.262	-2387.06397
208.484	-1177.01982
208.706	-3086.49286
208.927	30435.64549
209.149	1027.56217
209.371	-6541.22736
209.593	1725.44169
209.814	5286.13708
210.036	-3218.05155
210.258	-4947.02795
210.479	-1326.93627
210.701	993.9142
210.922	7131.91392
211.144	-1190.54108
211.366	-6326.03903
211.587	-588.42907
211.809	9611.3665
212.03	-1349.00096
212.252	-1854.77245
212.473	800.78855
212.695	-2633.23923
212.916	3216.07227
213.138	3721.73989
213.359	-1936.36525
213.581	6888.77996
213.802	-1827.55033
214.024	17379.30079
214.245	-2814.19595
214.466	-316.00389
214.688	1568.60203
214.909	1119.91799
215.131	-100354.80875
215.352	1872.89532
215.573	2495.94845
215.795	3062.36013
216.016	4252.06532
216.237	-617.24348
216.459	7084.7321
216.68	98303.29968
216.901	-83476.61435
217.122	2114.58636
217.344	6006.87894
217.565	-59285.95317
217.786	1564.08348
218.007	1663.55748
218.228	-1183.63343
218.45	-1313.19777
218.671	-952.88965
218.892	1171.9135
219.113	-19035.2363
219.334	-421.15683
219.555	-5216.70323
219.776	1644.70888
219.997	3470.72243
220.219	1204.64912
220.44	2577.9038
220.661	-3013.82864
220.882	3531.84763
221.103	-1275.95228
221.324	1063.07703
221.545	2240.32869
221.766	-5805.53487
221.987	3959.48203
222.208	-1804.2507
222.429	3440.5427
222.65	-112.55449
222.87	-605.07908
223.091	8890.56291
223.312	2217.69302
223.533	6984.89121
223.754	1899.58511
223.975	1484.38201
224.196	-11770.30633
224.417	1099.55119
224.637	921.8607
224.858	-828.31495
225.079	6477.14013
225.3	611.63019
225.521	2050.74918
225.741	1528.40759
225.962	729.26463
226.183	313.89272
226.404	680.92019
226.624	584.99354
226.845	353.43711
227.066	423.07786
227.286	205.50031
227.507	94.56687
227.728	79.52442
227.948	127.71758
228.169	44.26989
228.389	48.92201
228.61	26.21802
228.831	35.27539
229.051	3.65286
229.272	22.82872
229.492	31.45199
229.713	9.32468
229.933	24.2918
230.154	20.77525
230.374	32.04851
230.595	23.94717
230.815	16.77211
231.036	23.51376
231.256	-3.59688
231.477	42.8955
231.697	23.96789
231.917	24.19064
232.138	37.99409
232.358	78.44325
232.579	63.59225
232.799	12.40411
233.019	65.33427
233.24	81.60811
233.46	28.83345
233.68	42.518
233.901	32.20532
234.121	18.74615
234.341	7.91025
234.561	0.74915
234.782	17.27293
235.002	46.78761
235.222	-0.75416
235.442	42.59151
235.662	23.64818
235.883	43.48415
236.103	38.25273
236.323	30.65415
236.543	20.99087
236.763	29.14378
236.983	30.18497
237.203	31.06405
237.423	44.25708
237.643	61.02824
237.864	51.93519
238.084	14.26471
238.304	20.91961
238.524	32.5383
238.744	31.5722
238.964	46.44236
239.184	44.42047
239.404	46.48929
239.624	22.9495
239.843	40.4774
240.063	22.40457
240.283	16.43059
240.503	18.36383
240.723	18.01302
240.943	9.05479
241.163	13.11118
241.383	9.74786
241.603	5.01997
241.822	6.20659
242.042	4.57585
242.262	5.75459
242.482	6.88229
242.702	8.35003
242.921	2.37563
243.141	6.21865
243.361	4.81769
243.581	7.52035
243.8	6.52312
244.02	4.64911
244.24	8.04543
244.459	7.79216
244.679	14.29107
244.899	10.14231
245.118	10.7782
245.338	8.74077
245.558	11.04636
245.777	6.35676
245.997	7.47665
246.216	7.8981
246.436	4.31768
246.655	3.33915
246.875	2.40389
247.094	4.98875
247.314	1.70056
247.533	2.76818
247.753	3.6355
247.972	2.95868
248.192	1.32258
248.411	1.80953
248.631	3.26462
248.85	3.80671
249.07	3.00872
249.289	5.06479
249.508	3.98065
249.728	6.35426
249.947	6.76886
250.166	6.99614
250.386	4.19584
250.605	5.60936
250.824	8.35734
251.044	6.76492
251.263	21.03588
251.482	10.52138
251.701	10.12286
251.921	0.46563
252.14	3.39819
252.359	3.65758
252.578	7.99564
252.798	2.92027
253.017	7.79031
253.236	4.05331
253.455	4.97633
253.674	10.21465
253.893	4.62072
254.112	6.99469
254.331	9.59853
254.551	7.98263
254.77	3.97609
254.989	12.02469
255.208	10.20922
255.427	12.03605
255.646	10.77136
255.865	18.31788
256.084	7.85729
256.303	8.78937
256.522	11.66888
256.741	2.38432
256.96	3.94841
257.179	7.33312
257.397	8.4643
257.616	4.88939
257.835	5.39243
258.054	12.04453
258.273	7.38012
258.492	8.93372
258.711	5.40881
258.93	2.12211
259.148	3.42131
259.367	3.51315
259.586	4.57507
259.805	2.09281
260.023	4.35772
260.242	3.25141
260.461	2.38469
260.68	1.32063
260.898	3.73159
261.117	1.34788
261.336	0.92799
261.554	3.39846
261.773	3.40355
261.992	0.74408
262.21	3.0677
262.429	4.04749
262.648	6.37833
262.866	7.27474
263.085	5.06287
263.303	4.09532
263.522	7.6364
263.74	7.90737
263.959	13.03401
264.178	6.97347
264.396	5.90965
264.615	4.30791
264.833	10.28236
265.051	8.63176
265.27	8.9239
265.488	9.52968
265.707	5.56002
265.925	9.07545
266.144	4.24714
266.362	5.75038
266.58	5.16875
266.799	4.3296
267.017	5.17602
267.235	4.53902
267.454	3.14172
267.672	1.75827
267.89	3.7867
268.109	4.14955
268.327	3.91675
268.545	1.00587
268.763	3.71895
268.982	1.71521
269.2	4.34431
269.418	2.7241
269.636	2.36622
269.854	3.73107
270.073	2.90184
270.291	1.79635
270.509	1.93904
270.727	3.93467
270.945	6.34002
271.163	6.07488
271.381	1.40351
271.599	2.68022
271.817	4.49911
272.036	1.62344
272.254	2.70332
272.472	2.05093
272.69	2.21519
272.908	2.28831
273.126	3.70028
273.344	4.71546
273.562	1.73712
273.779	2.28796
273.997	3.3234
274.215	3.7285
274.433	2.83764
274.651	4.16663
274.869	4.35008
275.087	3.09958
275.305	3.83681
275.523	2.05101
275.74	2.88039
275.958	4.80645
276.176	6.96504
276.394	2.23045
276.612	2.8289
276.829	2.89527
277.047	2.3498
277.265	2.83852
277.483	3.57199
277.7	3.73968
277.918	3.11205
278.136	5.51651
278.353	2.82176
278.571	1.5144
278.789	4.54261
279.006	0.79262
279.224	2.98705
279.442	4.72896
279.659	3.1873
279.877	2.57894
280.094	4.66392
280.312	0.76208
280.529	2.80149
280.747	0.82471
280.964	2.60651
281.182	5.52445
281.399	2.53244
281.617	3.42599
281.834	2.45785
282.052	2.08321
282.269	2.73995
282.487	2.30907
282.704	1.90259
282.921	2.15221
283.139	2.96163
283.356	3.87879
283.574	3.26845
283.791	1.81374
284.008	4.5257
284.226	2.55343
284.443	2.92138
284.66	3.7268
284.877	3.05472
285.095	2.11977
285.312	1.51136
285.529	1.03806
285.746	0.69701
285.964	1.89827
286.181	1.2901
286.398	1.9669
286.615	2.38388
286.832	2.41264
287.05	0.75029
287.267	1.59681
287.484	1.88509
287.701	2.6389
287.918	2.33979
288.135	2.48647
288.352	1.26714
288.569	1.43004
288.786	2.24115
289.003	1.61654
289.22	2.46566
289.437	1.74309
289.654	2.52073
289.871	2.75822
290.088	2.64345
290.305	1.94856
290.522	1.68082
290.739	2.14309
290.956	2.83787
291.173	3.44296
291.39	3.23075
291.607	2.30311
291.824	1.42557
292.04	1.23251
292.257	2.6473
292.474	3.23041
292.691	2.01048
292.908	1.01309
293.125	1.8583
293.341	1.02641
293.558	4.75187
293.775	1.87593
293.992	1.79846
294.208	0.81502
294.425	1.03143
294.642	1.72249
294.858	2.56892
295.075	0.71689
295.292	1.83401
295.508	2.34088
295.725	3.48719
295.942	1.7465
296.158	1.19819
296.375	1.89645
296.591	1.53872
296.808	1.62741
297.024	1.76278
297.241	1.98308
297.458	2.19838
297.674	0.13429
297.891	1.81053
298.107	1.33491
298.323	0.98023
298.54	2.61802
298.756	1.24816
298.973	0.65493
299.189	2.69435
299.406	1.14539
299.622	2.79274
299.838	2.60337
300.055	2.54472
300.271	0.72753
300.487	0.87284
300.704	1.32784
300.92	0.72448
301.136	3.58779
301.353	2.61654
301.569	1.90666
301.785	2.10554
302.001	2.55897
302.218	2.13692
302.434	2.1927
302.65	0.6853
302.866	1.47072
303.083	3.69607
303.299	3.44813
303.515	1.66984
303.731	1.92817
303.947	0.68388
304.163	1.11988
304.379	2.10347
304.595	2.27043
304.812	1.47287
305.028	1.04868
305.244	1.63061
305.46	2.64674
305.676	2.62981
305.892	3.16537
306.108	1.9693
306.324	1.4406
306.54	3.56735
306.756	2.36092
306.972	2.50218
307.187	1.82468
307.403	3.34157
307.619	1.27313
307.835	2.79298
308.051	3.15835
308.267	0.62887
308.483	2.58011
308.699	2.40798
308.914	1.95335
309.13	1.75352
309.346	0.56243
309.562	1.01633
309.778	0.58479
309.993	2.32938
310.209	1.82281
310.425	0.75433
310.641	1.55775
310.856	0.8459
311.072	0.99327
311.288	1.75854
311.503	1.89037
311.719	0.33126
311.935	0.34335
312.15	2.15721
312.366	1.77506
312.581	2.21977
312.797	1.89792
313.013	2.41277
313.228	1.57743
313.444	1.98313
313.659	1.18912
313.875	2.15044
314.09	1.79658
314.306	2.92061
314.521	2.63405
314.737	2.37768
314.952	2.08432
315.168	1.64761
315.383	2.5679
315.599	1.57598
315.814	1.55543
316.029	2.57285
316.245	0.61985
316.46	0.69548
316.675	2.94583
316.891	3.69532
317.106	4.44505
317.321	2.57807
317.537	2.37356
317.752	2.56353
317.967	2.53285
318.183	1.27115
318.398	1.71137
318.613	2.6803
318.828	3.24334
319.043	2.56048
319.259	1.59489
319.474	2.27344
319.689	2.67962
319.904	0.42606
320.119	2.53468
320.334	2.20138
320.549	2.10864
320.765	3.03614
320.98	2.44207
321.195	2.8697
321.41	1.71038
321.625	2.40879
321.84	3.66197
322.055	3.81695
322.27	1.2315
322.485	0.98512
322.7	2.15999
322.915	3.04863
323.13	1.33191
323.345	3.48451
323.56	2.78025
323.775	2.6629
323.989	2.51054
324.204	2.02763
324.419	2.67263
324.634	0.98202
324.849	1.79419
325.064	4.10381
325.279	2.82692
325.493	2.57379
325.708	3.01584
325.923	1.29814
326.138	1.11146
326.352	3.40261
326.567	2.75514
326.782	1.65009
326.997	1.34579
327.211	2.33489
327.426	2.39732
327.641	1.63628
327.855	0.70874
328.07	2.5771
328.285	3.42014
328.499	1.57844
328.714	2.57785
328.928	2.82809
329.143	2.26445
329.358	2.90072
329.572	2.9129
329.787	3.30138
330.001	4.23809
330.216	0.91795
330.43	3.51775
330.645	3.33837
330.859	2.73612
331.074	1.54581
331.288	2.43805
331.503	3.42991
331.717	1.08256
331.931	2.03213
332.146	2.12056
332.36	3.60879
332.575	2.54238
332.789	2.16783
333.003	1.94185
333.218	2.38245
333.432	1.68175
333.646	2.60895
333.86	3.32409
334.075	3.50876
334.289	1.73383
334.503	1.1258
334.717	2.57456
334.932	2.64897
335.146	3.13733
335.36	1.7672
335.574	2.49068
335.788	2.47897
336.003	3.02114
336.217	2.71924
336.431	2.60424
336.645	1.61182
336.859	1.16563
337.073	1.85033
337.287	2.30869
337.501	1.34509
337.715	2.33811
337.929	2.75456
338.143	1.1957
338.357	2.05885
338.571	1.288
338.785	2.50795
338.999	1.63855
339.213	1.71755
339.427	0.94721
339.641	2.89967
339.855	1.87138
340.069	1.66771
340.283	3.09226
340.497	3.63498
340.711	2.62048
340.924	1.6119
341.138	1.19663
341.352	0.81663
341.566	2.37118
341.78	0.80266
341.993	1.55536
342.207	1.18412
342.421	2.17537
342.635	2.05207
342.848	1.6318
343.062	0.22995
343.276	1.48959
343.49	3.96857
343.703	1.57067
343.917	2.64835
344.131	2.83084
344.344	1.36025
344.558	1.4271
344.771	1.2709
344.985	3.22747
345.199	3.32551
345.412	2.1306
345.626	2.28562
345.839	0.59497
346.053	1.12271
346.266	1.02807
346.48	2.74597
346.693	2.12688
346.907	2.24398
347.12	1.48462
347.334	2.34032
347.547	2.32209
347.76	1.75229
347.974	2.92906
348.187	2.35469
348.401	1.71157
348.614	1.42668
348.827	1.73208
349.041	2.44991
349.254	0.7984
349.467	1.75993
349.681	0.74762
349.894	1.45959
350.107	3.05623
350.32	3.28728
350.534	0.56934
350.747	1.56471
350.96	1.11724
351.173	1.29856
351.386	1.73336
351.6	1.51485
351.813	1.30779
352.026	2.0993
352.239	0.88959
352.452	1.45159
352.665	2.34848
352.878	1.68478
353.092	3.67413
353.305	2.38944
353.518	2.10079
353.731	1.16683
353.944	3.01576
354.157	1.31981
354.37	1.25059
354.583	1.05051
354.796	0.63232
355.009	2.86481
355.222	1.80612
355.435	1.93335
355.647	2.72022
355.86	1.16616
356.073	1.77497
356.286	1.4284
356.499	2.55463
356.712	2.02587
356.925	2.10767
357.138	2.57587
357.35	1.03278
357.563	1.51715
357.776	1.9999
357.989	1.6681
358.201	2.20489
358.414	1.81225
358.627	2.72392
358.84	1.5929
359.052	0.96752
359.265	0.94123
359.478	2.67572
359.69	-0.26728
359.903	2.27747
360.116	2.38979
360.328	0.54061
360.541	2.47565
360.753	1.07153
360.966	1.37072
361.179	1.49025
361.391	1.3553
361.604	0.91992
361.816	1.36723
362.029	1.24256
362.241	1.08291
362.454	1.40189
362.666	1.01518
362.879	1.90459
363.091	1.5211
363.304	1.17913
363.516	1.60637
363.728	0.7436
363.941	2.05564
364.153	1.59715
364.366	0.33012
364.578	0.92136
364.79	2.0668
365.003	1.86559
365.215	1.45749
365.427	2.31247
365.639	2.80218
365.852	1.9574
366.064	3.3278
366.276	1.51865
366.488	2.12002
366.701	1.47469
366.913	1.55433
367.125	1.73625
367.337	1.40347
367.549	1.39608
367.762	1.84846
367.974	1.89845
368.186	1.45481
368.398	2.70481
368.61	2.2139
368.822	2.31579
369.034	1.88169
369.246	2.55483
369.458	3.89309
369.67	1.20759
369.882	3.29214
370.094	0.43734
370.306	3.02219
370.518	1.63581
370.73	1.46753
370.942	1.65165
371.154	1.92822
371.366	1.64828
371.578	2.27369
371.79	1.80523
372.002	3.03802
372.214	3.73093
372.425	2.12196
372.637	3.3152
372.849	2.33119
373.061	0.50029
373.273	2.60553
373.484	2.69568
373.696	2.95505
373.908	0.48669
374.12	2.88585
374.331	2.80502
374.543	1.76999
374.755	1.50756
374.967	2.42324
375.178	3.20441
375.39	2.23988
375.602	2.50224
375.813	1.43105
376.025	1.63982
376.236	2.52882
376.448	2.67041
376.66	2.41557
376.871	2.49668
377.083	3.2187
377.294	3.93003
377.506	2.23833
377.717	3.63041
377.929	2.94731
378.14	2.45467
378.352	3.24409
378.563	3.47265
378.775	3.96808
378.986	2.20135
379.197	2.83097
379.409	2.39056
379.62	3.41611
379.832	3.15931
380.043	3.08355
380.254	3.29975
380.466	2.18079
380.677	5.19344
380.888	4.7067
381.1	5.17607
381.311	5.25274
381.522	3.58795
381.733	5.35995
381.945	3.15347
382.156	3.05656
382.367	3.21993
382.578	5.78927
382.789	5.74085
383.001	2.89341
383.212	4.78794
383.423	5.00127
383.634	4.3628
383.845	4.36992
384.056	3.37716
384.267	3.79611
384.478	3.77745
384.69	3.08968
384.901	4.44764
385.112	4.31038
385.323	5.34978
385.534	4.49
385.745	4.63542
385.956	4.38523
386.167	3.4434
386.378	4.66365
386.588	3.86624
386.799	3.67557
387.01	3.42252
387.221	5.08109
387.432	4.57138
387.643	5.87562
387.854	4.38757
388.065	4.39246
388.275	4.55433
388.486	4.20764
388.697	4.79736
388.908	4.4648
389.119	5.77944
389.329	6.16757
389.54	5.0571
389.751	5.28424
389.962	6.08018
390.172	5.19252
390.383	5.12925
390.594	4.78144
390.804	4.852
391.015	4.98891
391.226	5.80715
391.436	6.05127
391.647	5.95539
391.858	6.0585
392.068	4.73601
392.279	5.10821
392.489	6.18485
392.7	6.47216
392.91	5.54318
393.121	5.52062
393.331	6.45277
393.542	7.02702
393.752	6.68031
393.963	6.77744
394.173	6.64994
394.384	7.10593
394.594	6.47275
394.804	5.8287
395.015	6.45479
395.225	7.10569
395.436	5.98938
395.646	7.05156
395.856	6.5221
396.067	5.9428
396.277	7.31263
396.487	7.20698
396.697	7.26893
396.908	7.62037
397.118	7.45254
397.328	7.01963
397.538	7.80373
397.749	6.87151
397.959	7.94044
398.169	7.62191
398.379	6.47852
398.589	7.43449
398.8	7.85837
399.01	7.62668
399.22	7.23538
399.43	9.21017
399.64	7.75005
399.85	8.04354
400.06	8.02317
400.27	7.32421
400.48	7.78248
400.69	8.70303
400.9	7.73098
401.11	7.16136
401.32	8.53323
401.53	7.81021
401.74	9.17869
401.95	8.56407
402.16	8.07439
402.37	8.68358
402.58	8.16014
402.79	8.66829
403	8.84152
403.209	8.08494
403.419	9.4402
403.629	8.14664
403.839	9.5891
404.049	9.31086
404.258	8.66083
404.468	8.73597
404.678	9.64435
404.888	10.05373
405.097	9.13046
405.307	9.02843
405.517	9.61177
405.727	9.82389
405.936	8.98144
406.146	9.51495
406.356	10.41116
406.565	9.23729
406.775	9.22356
406.984	9.20745
407.194	10.96161
407.404	9.72529
407.613	9.83738
407.823	10.08951
408.032	10.47184
408.242	10.24281
408.451	9.38517
408.661	9.51957
408.87	10.57112
409.08	9.12633
409.289	10.26888
409.499	10.23302
409.708	10.07025
409.918	8.64011
410.127	10.246
410.336	11.18533
410.546	10.90696
410.755	9.86321
410.964	9.9322
411.174	9.4244
411.383	10.5313
411.592	10.39679
411.802	9.61401
412.011	10.78678
412.22	10.30066
412.429	11.36733
412.639	11.35467
412.848	10.95824
413.057	11.54487
413.266	11.00798
413.475	10.46595
413.685	11.05936
413.894	11.15109
414.103	11.2966
414.312	11.1318
414.521	10.34638
414.73	10.87529
414.939	11.99415
415.148	11.12417
415.357	11.1372
415.566	11.03846
415.776	10.79303
415.985	10.82359
416.194	11.73066
416.403	12.47753
416.611	10.49514
416.82	10.94785
417.029	11.48908
417.238	11.14961
417.447	11.17525
417.656	11.52928
417.865	11.48933
418.074	11.93743
418.283	12.71247
418.492	14.04989
418.7	13.85001
418.909	15.68907
419.118	14.27517
419.327	15.11531
419.536	14.89934
419.744	15.45384
419.953	16.92967
420.162	17.33647
420.371	16.75182
420.579	17.84875
420.788	18.54403
420.997	18.92439
421.205	19.14365
421.414	18.96823
421.623	19.52225
421.831	18.53781
422.04	19.10378
422.249	18.05965
422.457	18.08938
422.666	17.05899
422.874	18.2665
423.083	18.55231
423.291	18.59385
423.5	18.63186
423.708	19.21787
423.917	19.94994
424.125	19.20038
424.334	18.92568
424.542	21.03282
424.751	20.1619
424.959	19.71406
425.167	19.94639
425.376	19.57419
425.584	17.71709
425.793	17.44214
426.001	16.22994
426.209	16.14182
426.418	14.50678
