Data from WindowProjectSample_Transmission__50__00050__01934805344249444.txt Node

Date: Mon May 05 18:08:59 EDT 2025
User: jessi
Spectrometer: SR400872
Trigger mode: 0
Integration Time (sec): 5.000010E-1
Scans to average: 20
Electric dark correction enabled: true
Nonlinearity correction enabled: true
Boxcar width: 0
XAxis mode: Wavelengths
Number of Pixels in Spectrum: 3648
>>>>>Begin Spectral Data<<<<<
184.909	21064.97902
185.132	-5080.51481
185.355	-3024.61287
185.578	-18319.99101
185.801	1646.72042
186.024	10331.97934
186.247	-1857.69727
186.47	1143.4494
186.693	298.64678
186.916	226.31445
187.139	-3737.46937
187.362	3541.28832
187.585	3968.41163
187.808	3499.49424
188.031	-5.81849
188.254	-55286.9129
188.476	-654.86954
188.699	6265.84998
188.922	534.56728
189.145	-15443.66785
189.368	-697.22513
189.591	-1406.33213
189.813	3063.73696
190.036	-48894.30546
190.259	-918.33947
190.482	-4351.26117
190.705	7373.43093
190.927	-2456.61504
191.15	13531.13595
191.373	3380.87061
191.595	-9078.55552
191.818	-4151.47289
192.041	-6685.43873
192.263	-3298.59265
192.486	-1045.42798
192.709	-3992.33245
192.931	8187.06733
193.154	-28772.69287
193.377	-2882.87613
193.599	-2577.04344
193.822	-9687.133
194.044	-1991.22227
194.267	1198.55615
194.489	191.92516
194.712	-42158.65167
194.934	-32739.2887
195.157	1188.4798
195.379	1327.18229
195.602	-7561.05234
195.824	-1338.60234
196.047	-8421.81895
196.269	2715.07572
196.492	-6645.8528
196.714	28773.86812
196.936	-8696.35541
197.159	-1190.91479
197.381	1103.93763
197.604	506.6447
197.826	12056.83713
198.048	-10813.92847
198.271	-2850.49155
198.493	7465.53613
198.715	2347.87777
198.938	-521.55242
199.16	7254.77213
199.382	-102167.19668
199.604	2760.78068
199.827	-1024.63809
200.049	-3020.07718
200.271	14352.51147
200.493	1254.50953
200.715	-38801.87993
200.938	-5947.67383
201.16	-4402.18809
201.382	21743.43206
201.604	2333.61034
201.826	2298.0597
202.048	-2027.35009
202.27	-1980.00618
202.492	-37184.264
202.715	3037.58329
202.937	-4489.36044
203.159	-6325.59388
203.381	1599.78513
203.603	7253.3944
203.825	6385.61625
204.047	2256.76451
204.269	-2871.97214
204.491	2209.51069
204.713	6045.3829
204.935	-464158.6203
205.156	1193.49922
205.378	-3085.79574
205.6	1630.66268
205.822	152635.76191
206.044	-975.04091
206.266	1639.57944
206.488	4114.4563
206.71	-5047.15507
206.932	1139.61258
207.153	12108.81017
207.375	-6661.09676
207.597	-37506.72032
207.819	-2934.68572
208.041	2374.39733
208.262	462.229
208.484	756.373
208.706	-757.11488
208.927	-835.54481
209.149	586.6209
209.371	-2954.06663
209.593	-254.70522
209.814	-913.74881
210.036	540.38085
210.258	-686.35269
210.479	1789.7309
210.701	1688.10136
210.922	3372.40533
211.144	-3774.76783
211.366	2064.54213
211.587	7568.17423
211.809	-8167.94031
212.03	2359.36315
212.252	518.71457
212.473	2017.12645
212.695	-6246.54703
212.916	2908.05863
213.138	-765.86508
213.359	3795.50648
213.581	5016.67314
213.802	-859.10897
214.024	1130.97541
214.245	1934.35378
214.466	2713.33853
214.688	-3175.45675
214.909	-1192.85374
215.131	-1809.03958
215.352	-3110.78583
215.573	14990.44033
215.795	5092.47355
216.016	5456.49694
216.237	918.2291
216.459	3676.99418
216.68	1779.31344
216.901	4940.84802
217.122	-3108.08248
217.344	-11740.16916
217.565	3443.03021
217.786	8766.16677
218.007	17865.88491
218.228	-827.09653
218.45	6070.43767
218.671	692.0514
218.892	38195.88581
219.113	1611.40106
219.334	-306.9096
219.555	10226.05323
219.776	3165.44682
219.997	22941.6932
220.219	2909.03257
220.44	-11597.43448
220.661	466.90538
220.882	1512.66761
221.103	-1118.54038
221.324	2216.24763
221.545	2327.95006
221.766	-8600.12272
221.987	881.87574
222.208	1628.54948
222.429	4378.36835
222.65	283.10268
222.87	19903.9458
223.091	677.22628
223.312	595.57287
223.533	1354.63271
223.754	1531.52156
223.975	1318.71128
224.196	1981.57173
224.417	1281.7835
224.637	618.55327
224.858	75.32723
225.079	1097.29226
225.3	650.80144
225.521	3770.9963
225.741	477.74948
225.962	505.40707
226.183	140.8472
226.404	668.51126
226.624	419.75526
226.845	595.48833
227.066	400.11289
227.286	242.89515
227.507	131.8326
227.728	120.7889
227.948	238.66514
228.169	79.59588
228.389	86.52855
228.61	45.26533
228.831	65.36537
229.051	3.06561
229.272	39.72091
229.492	55.5201
229.713	12.98276
229.933	38.22139
230.154	33.38036
230.374	55.6522
230.595	37.91369
230.815	23.68575
231.036	37.78297
231.256	-6.93111
231.477	69.28482
231.697	38.77892
231.917	41.99556
232.138	54.40564
232.358	109.91336
232.579	101.65044
232.799	21.02899
233.019	100.61159
233.24	115.38957
233.46	35.54271
233.68	68.67478
233.901	41.35914
234.121	27.12952
234.341	13.02395
234.561	-4.02242
234.782	20.76595
235.002	67.24534
235.222	-3.66539
235.442	63.68206
235.662	33.50194
235.883	61.75102
236.103	52.02367
236.323	33.12396
236.543	28.48601
236.763	39.25747
236.983	42.01949
237.203	42.07251
237.423	64.14092
237.643	87.16548
237.864	73.19829
238.084	19.44668
238.304	26.57704
238.524	45.00451
238.744	39.2795
238.964	73.26775
239.184	61.9701
239.404	62.98055
239.624	33.1959
239.843	61.49991
240.063	38.072
240.283	22.65198
240.503	26.17728
240.723	25.39079
240.943	14.96209
241.163	20.22133
241.383	15.17209
241.603	7.24593
241.822	9.62772
242.042	6.18752
242.262	8.47395
242.482	9.57683
242.702	10.90303
242.921	2.8816
243.141	6.38161
243.361	6.44772
243.581	9.38253
243.8	7.4154
244.02	5.41842
244.24	9.32376
244.459	8.95246
244.679	17.58745
244.899	11.33046
245.118	13.19306
245.338	11.67288
245.558	13.97674
245.777	8.79374
245.997	11.154
246.216	10.3057
246.436	6.34403
246.655	4.82385
246.875	3.05669
247.094	6.38412
247.314	2.18081
247.533	3.66577
247.753	4.29495
247.972	3.45518
248.192	1.20245
248.411	1.78982
248.631	3.3091
248.85	4.77393
249.07	3.86179
249.289	6.02025
249.508	5.14691
249.728	7.71266
249.947	7.31969
250.166	8.75234
250.386	4.47419
250.605	7.02145
250.824	11.55596
251.044	7.55974
251.263	28.74926
251.482	14.36231
251.701	11.76027
251.921	-0.01148
252.14	2.95706
252.359	3.96328
252.578	10.36989
252.798	3.37521
253.017	8.76369
253.236	4.50616
253.455	5.67559
253.674	10.24805
253.893	4.81796
254.112	7.9513
254.331	11.34486
254.551	8.71372
254.77	3.23529
254.989	13.92161
255.208	9.98816
255.427	14.89181
255.646	11.86472
255.865	21.50256
256.084	9.44087
256.303	11.26329
256.522	13.9401
256.741	2.96319
256.96	3.16766
257.179	8.26575
257.397	10.99643
257.616	5.51214
257.835	7.48639
258.054	15.77648
258.273	10.51033
258.492	11.15185
258.711	6.87316
258.93	3.11994
259.148	4.7024
259.367	4.56455
259.586	5.76855
259.805	2.49711
260.023	5.16361
260.242	3.85902
260.461	2.83005
260.68	1.2706
260.898	4.40098
261.117	1.36141
261.336	0.86212
261.554	3.53962
261.773	3.44601
261.992	0.77719
262.21	3.45978
262.429	3.77914
262.648	7.28052
262.866	8.40937
263.085	5.30653
263.303	4.94705
263.522	8.66431
263.74	9.09165
263.959	15.45389
264.178	7.21066
264.396	6.31652
264.615	5.14643
264.833	10.32781
265.051	8.70348
265.27	10.76932
265.488	10.72943
265.707	6.24927
265.925	10.99351
266.144	4.48213
266.362	5.76953
266.58	5.60054
266.799	5.30535
267.017	6.18157
267.235	5.43395
267.454	3.35823
267.672	1.71964
267.89	3.93355
268.109	4.51663
268.327	4.4832
268.545	1.03869
268.763	3.99139
268.982	1.46546
269.2	4.37748
269.418	3.23169
269.636	1.80976
269.854	4.89951
270.073	3.32077
270.291	2.16812
270.509	1.70275
270.727	4.27328
270.945	7.31059
271.163	7.10914
271.381	1.53545
271.599	3.04786
271.817	5.46224
272.036	1.59115
272.254	3.32535
272.472	2.24804
272.69	2.42828
272.908	2.45933
273.126	4.60948
273.344	5.39374
273.562	1.68411
273.779	2.60358
273.997	3.86747
274.215	4.18344
274.433	2.87433
274.651	4.43472
274.869	4.67131
275.087	2.86146
275.305	4.26982
275.523	2.55266
275.74	3.06348
275.958	5.37702
276.176	8.34119
276.394	2.57572
276.612	3.25698
276.829	3.43268
277.047	2.76129
277.265	2.97267
277.483	3.73327
277.7	4.28622
277.918	3.4771
278.136	6.23745
278.353	2.92131
278.571	1.73377
278.789	4.47364
279.006	0.88283
279.224	2.9768
279.442	5.20484
279.659	3.55769
279.877	2.61996
280.094	5.82832
280.312	1.13367
280.529	3.4618
280.747	0.93497
280.964	2.53224
281.182	6.16216
281.399	2.73645
281.617	3.74551
281.834	2.43194
282.052	2.03996
282.269	3.17983
282.487	2.35625
282.704	2.11489
282.921	2.23906
283.139	3.35939
283.356	4.03554
283.574	3.74704
283.791	1.84292
284.008	5.76255
284.226	2.9677
284.443	3.34842
284.66	4.19236
284.877	3.47924
285.095	2.09001
285.312	1.49428
285.529	0.85442
285.746	0.79875
285.964	2.02459
286.181	1.52371
286.398	1.94287
286.615	2.66804
286.832	2.5894
287.05	0.5423
287.267	1.8325
287.484	1.69096
287.701	2.62573
287.918	2.61661
288.135	2.75067
288.352	1.32671
288.569	1.56707
288.786	2.41849
289.003	2.06216
289.22	3.17871
289.437	1.53821
289.654	2.96159
289.871	3.07966
290.088	2.96227
290.305	2.34701
290.522	1.7648
290.739	2.14553
290.956	3.09711
291.173	3.4981
291.39	3.41201
291.607	2.43723
291.824	1.71882
292.04	1.25972
292.257	2.93486
292.474	3.32102
292.691	1.98219
292.908	1.0683
293.125	1.66983
293.341	1.10165
293.558	5.00524
293.775	1.95366
293.992	2.09323
294.208	0.79246
294.425	1.28874
294.642	1.88066
294.858	3.19242
295.075	0.5882
295.292	1.96937
295.508	2.39868
295.725	4.05639
295.942	1.67164
296.158	1.21967
296.375	2.02604
296.591	1.55092
296.808	1.68518
297.024	1.93742
297.241	2.19165
297.458	2.37854
297.674	0.10761
297.891	1.77545
298.107	1.37937
298.323	1.11152
298.54	3.0824
298.756	1.29119
298.973	0.68277
299.189	3.04113
299.406	1.19573
299.622	2.86269
299.838	2.7779
300.055	2.60456
300.271	0.60436
300.487	0.92851
300.704	1.27153
300.92	0.71685
301.136	4.24713
301.353	2.70845
301.569	1.75207
301.785	2.20119
302.001	2.63481
302.218	2.08955
302.434	2.216
302.65	0.66777
302.866	1.571
303.083	3.92617
303.299	3.67473
303.515	2.04473
303.731	2.08885
303.947	0.59315
304.163	1.22943
304.379	2.0315
304.595	2.41024
304.812	1.3382
305.028	1.26337
305.244	1.7572
305.46	2.74198
305.676	2.64403
305.892	3.20405
306.108	2.29886
306.324	1.47002
306.54	3.59013
306.756	2.62573
306.972	2.39414
307.187	1.65334
307.403	3.30021
307.619	1.58837
307.835	2.99918
308.051	3.53961
308.267	0.95242
308.483	2.93243
308.699	2.33647
308.914	1.95477
309.13	1.6751
309.346	0.53155
309.562	1.02546
309.778	0.71031
309.993	2.5116
310.209	1.82249
310.425	0.97261
310.641	1.64201
310.856	0.98932
311.072	0.92302
311.288	1.76187
311.503	1.88401
311.719	0.35588
311.935	0.21473
312.15	2.22773
312.366	1.76132
312.581	2.22152
312.797	1.82956
313.013	2.62125
313.228	1.19179
313.444	1.84766
313.659	1.29498
313.875	2.27976
314.09	1.76406
314.306	3.09412
314.521	2.66001
314.737	2.54788
314.952	1.89545
315.168	1.736
315.383	2.36327
315.599	1.68868
315.814	1.66948
316.029	2.63613
316.245	0.72973
316.46	0.55464
316.675	3.08389
316.891	3.55938
317.106	4.59932
317.321	2.16892
317.537	2.47933
317.752	2.73558
317.967	2.81122
318.183	1.12029
318.398	1.60784
318.613	2.62858
318.828	3.19175
319.043	2.72831
319.259	1.79363
319.474	2.14438
319.689	3.07429
319.904	0.41852
320.119	2.54491
320.334	2.29813
320.549	1.66911
320.765	2.89224
320.98	2.32139
321.195	2.57424
321.41	1.89134
321.625	2.65854
321.84	3.67261
322.055	3.61078
322.27	1.55641
322.485	1.0547
322.7	2.27156
322.915	2.84621
323.13	1.13029
323.345	3.34432
323.56	2.78079
323.775	2.56804
323.989	2.35858
324.204	2.22937
324.419	2.91012
324.634	0.92765
324.849	1.88817
325.064	4.99524
325.279	2.77692
325.493	2.39798
325.708	2.80496
325.923	1.26641
326.138	1.46373
326.352	3.46335
326.567	2.85563
326.782	1.62733
326.997	1.31696
327.211	2.51653
327.426	2.30794
327.641	1.56997
327.855	0.56324
328.07	2.31792
328.285	3.51046
328.499	1.45525
328.714	2.24634
328.928	2.67081
329.143	1.82052
329.358	2.85047
329.572	2.84353
329.787	3.07037
330.001	4.2021
330.216	0.93337
330.43	3.70386
330.645	3.58455
330.859	2.86147
331.074	1.42378
331.288	2.21396
331.503	3.09362
331.717	1.08402
331.931	2.22679
332.146	2.11259
332.36	3.61523
332.575	2.4177
332.789	2.23211
333.003	2.05486
333.218	2.47521
333.432	1.47447
333.646	2.75192
333.86	3.40538
334.075	3.50945
334.289	1.59077
334.503	1.25909
334.717	2.3616
334.932	2.3743
335.146	3.29737
335.36	1.78852
335.574	2.64549
335.788	2.42632
336.003	2.91538
336.217	2.5615
336.431	2.50648
336.645	1.48946
336.859	1.01314
337.073	1.79586
337.287	2.2343
337.501	1.11928
337.715	2.2567
337.929	2.87789
338.143	1.01606
338.357	1.81803
338.571	1.24974
338.785	2.41011
338.999	1.67815
339.213	1.47123
339.427	0.74109
339.641	3.26026
339.855	1.83638
340.069	1.48407
340.283	2.76684
340.497	3.66158
340.711	2.36978
340.924	1.8016
341.138	1.03653
341.352	0.98583
341.566	2.22196
341.78	0.61311
341.993	1.50306
342.207	1.06598
342.421	2.2331
342.635	1.75032
342.848	1.54483
343.062	0.1716
343.276	1.27801
343.49	3.74642
343.703	1.44096
343.917	2.8908
344.131	2.80573
344.344	1.39887
344.558	1.70982
344.771	1.08428
344.985	3.40613
345.199	3.3051
345.412	2.10661
345.626	2.22713
345.839	0.65028
346.053	1.06724
346.266	1.05115
346.48	2.52093
346.693	2.15247
346.907	2.24919
347.12	1.1591
347.334	2.31377
347.547	2.06598
347.76	1.60217
347.974	2.87896
348.187	2.1394
348.401	1.49221
348.614	1.48934
348.827	1.62157
349.041	2.42557
349.254	0.57995
349.467	1.67486
349.681	0.88902
349.894	1.45073
350.107	2.94117
350.32	3.38054
350.534	0.75064
350.747	1.50968
350.96	1.25885
351.173	1.28948
351.386	1.65853
351.6	1.54283
351.813	1.42009
352.026	1.72726
352.239	0.79786
352.452	1.70417
352.665	2.5802
352.878	1.80593
353.092	3.54711
353.305	2.57435
353.518	2.14441
353.731	1.26103
353.944	2.79819
354.157	1.41962
354.37	1.20794
354.583	1.11174
354.796	0.60179
355.009	2.62746
355.222	2.15625
355.435	1.94547
355.647	2.63818
355.86	1.15012
356.073	1.91754
356.286	1.37564
356.499	2.32362
356.712	2.14531
356.925	2.22753
357.138	2.4113
357.35	1.07946
357.563	1.49499
357.776	1.80415
357.989	1.60916
358.201	2.10205
358.414	1.98099
358.627	2.89187
358.84	1.61874
359.052	0.8559
359.265	1.25251
359.478	2.59247
359.69	-0.05002
359.903	2.40954
360.116	2.45787
360.328	0.57697
360.541	2.45063
360.753	1.0181
360.966	1.37266
361.179	1.511
361.391	1.38333
361.604	1.14054
361.816	1.46109
362.029	1.24699
362.241	1.09106
362.454	1.32063
362.666	1.03708
362.879	1.88508
363.091	1.45097
363.304	1.22045
363.516	1.60166
363.728	1.00357
363.941	2.1407
364.153	1.51171
364.366	0.26953
364.578	1.00792
364.79	1.90472
365.003	1.68109
365.215	1.34265
365.427	2.19888
365.639	2.6044
365.852	1.84105
366.064	3.5159
366.276	1.55162
366.488	2.07126
366.701	1.56272
366.913	1.71888
367.125	1.6627
367.337	1.29841
367.549	1.45532
367.762	1.8658
367.974	1.89673
368.186	1.36529
368.398	2.48922
368.61	2.32628
368.822	2.33447
369.034	1.85094
369.246	2.34326
369.458	4.14672
369.67	1.23579
369.882	3.29912
370.094	0.63228
370.306	3.18044
370.518	1.75119
370.73	1.49688
370.942	1.45166
371.154	1.88062
371.366	1.6173
371.578	2.12685
371.79	1.51153
372.002	2.73113
372.214	3.39017
372.425	2.03858
372.637	3.09262
372.849	2.24343
373.061	0.65136
373.273	2.3561
373.484	2.31598
373.696	2.76752
373.908	0.70732
374.12	2.98024
374.331	2.30305
374.543	1.64609
374.755	1.54406
374.967	2.28116
375.178	2.84997
375.39	1.97415
375.602	2.35523
375.813	1.2549
376.025	1.46413
376.236	2.29472
376.448	2.4202
376.66	1.91622
376.871	2.00144
377.083	3.20256
377.294	3.2703
377.506	2.01769
377.717	3.25764
377.929	2.54501
378.14	1.93291
378.352	2.71086
378.563	2.69545
378.775	3.35619
378.986	1.86099
379.197	2.33431
379.409	1.98525
379.62	2.95703
379.832	2.84074
380.043	2.39811
380.254	2.57919
380.466	1.90318
380.677	4.65882
380.888	4.05811
381.1	4.37503
381.311	4.44509
381.522	2.79496
381.733	4.82751
381.945	2.75907
382.156	2.87961
382.367	2.41203
382.578	4.89191
382.789	4.72925
383.001	2.70049
383.212	4.00314
383.423	4.09909
383.634	3.84939
383.845	3.55837
384.056	2.90072
384.267	3.22439
384.478	3.17548
384.69	2.45865
384.901	3.46933
385.112	3.51179
385.323	4.50108
385.534	3.64934
385.745	3.61
385.956	3.64347
386.167	2.90254
386.378	3.78275
386.588	2.94149
386.799	3.03367
387.01	2.58667
387.221	4.12475
387.432	3.59376
387.643	4.93222
387.854	3.53949
388.065	3.61865
388.275	3.69699
388.486	3.48831
388.697	3.8328
388.908	3.56951
389.119	4.64686
389.329	4.94365
389.54	4.12282
389.751	4.26312
389.962	5.03494
390.172	4.29148
390.383	4.04395
390.594	3.90487
390.804	3.97288
391.015	4.04243
391.226	4.47171
391.436	4.87761
391.647	4.72816
391.858	4.99752
392.068	3.70362
392.279	4.03781
392.489	4.88682
392.7	5.48021
392.91	4.32307
393.121	4.40534
393.331	5.16274
393.542	5.69903
393.752	5.31632
393.963	5.37042
394.173	5.39827
394.384	5.54103
394.594	5.25862
394.804	4.67409
395.015	5.40931
395.225	5.7023
395.436	4.85296
395.646	5.69596
395.856	5.19797
396.067	4.77833
396.277	6.1803
396.487	5.88743
396.697	5.95275
396.908	6.03001
397.118	6.16563
397.328	6.01561
397.538	6.56307
397.749	5.42503
397.959	6.59418
398.169	6.42819
398.379	5.35247
398.589	6.48562
398.8	6.42888
399.01	6.3488
399.22	6.10727
399.43	7.78945
399.64	6.52783
399.85	6.91209
400.06	6.70724
400.27	6.05287
400.48	6.65067
400.69	7.60742
400.9	6.48568
401.11	6.20949
401.32	7.3248
401.53	6.54793
401.74	7.89977
401.95	7.37752
402.16	6.76609
402.37	7.291
402.58	7.00674
402.79	7.68769
403	8.04132
403.209	7.10602
403.419	8.29491
403.629	7.11583
403.839	8.38221
404.049	8.30753
404.258	7.59255
404.468	7.46851
404.678	8.142
404.888	8.68458
405.097	7.78061
405.307	8.00357
405.517	8.5239
405.727	8.39389
405.936	8.02424
406.146	8.36316
406.356	9.15146
406.565	8.30038
406.775	8.17834
406.984	8.03792
407.194	9.46104
407.404	8.4118
407.613	8.84435
407.823	8.97747
408.032	9.24477
408.242	9.30301
408.451	8.49061
408.661	8.66296
408.87	9.91875
409.08	8.34371
409.289	9.13911
409.499	9.13394
409.708	9.00889
409.918	7.80855
410.127	9.35282
410.336	10.02405
410.546	9.69263
410.755	9.02781
410.964	9.14715
411.174	8.77758
411.383	9.63442
411.592	9.57813
411.802	8.89195
412.011	9.75914
412.22	9.36678
412.429	10.59419
412.639	10.45754
412.848	10.2076
413.057	10.45693
413.266	10.26201
413.475	9.73914
413.685	10.10368
413.894	10.42441
414.103	10.49654
414.312	10.35556
414.521	9.7146
414.73	10.03745
414.939	11.37305
415.148	10.4819
415.357	10.36923
415.566	10.06316
415.776	9.97356
415.985	10.2143
416.194	10.84228
416.403	11.63298
416.611	9.82371
416.82	10.3152
417.029	10.83224
417.238	10.43314
417.447	10.43115
417.656	10.69323
417.865	10.47948
418.074	10.85502
418.283	10.95093
418.492	11.60888
418.7	11.35907
418.909	12.47365
419.118	11.59038
419.327	12.05944
419.536	12.01246
419.744	12.16864
419.953	13.46273
420.162	13.8214
420.371	13.29269
420.579	14.01767
420.788	14.87175
420.997	14.97207
421.205	15.45873
421.414	15.19791
421.623	15.33301
421.831	14.97685
422.04	15.4403
422.249	14.49647
422.457	14.84267
422.666	14.00329
422.874	14.76525
423.083	14.92049
423.291	14.85687
423.5	14.85673
423.708	15.36069
423.917	15.80666
424.125	15.39101
424.334	15.40231
424.542	16.96326
424.751	16.46933
424.959	16.00133
425.167	15.93453
425.376	15.84242
425.584	14.52215
425.793	14.25194
426.001	13.32194
426.209	13.23156
