Data from WindowProjectSample3_Transmission__37__00037.txt Node

Date: Sun May 04 10:39:17 EDT 2025
User: jessi
Spectrometer: SR400872
Trigger mode: 0
Integration Time (sec): 5.000050E-1
Scans to average: 20
Electric dark correction enabled: true
Nonlinearity correction enabled: true
Boxcar width: 0
XAxis mode: Wavelengths
Number of Pixels in Spectrum: 3648
>>>>>Begin Spectral Data<<<<<
184.909	-1113.4475
185.132	-1325.50451
185.355	-1459.44046
185.578	-984.37361
185.801	455.11414
186.024	-1048.40914
186.247	1179.61766
186.47	-1056.26137
186.693	-433.99772
186.916	-607.16713
187.139	-828.2142
187.362	-937.56845
187.585	-919.82648
187.808	-747.30616
188.031	2656.50577
188.254	-2245.14996
188.476	-1066.68914
188.699	-1147.20854
188.922	772.87534
189.145	-952.81169
189.368	-2438.75306
189.591	-1740.90071
189.813	-1443.08554
190.036	-1072.13443
190.259	-1110.29753
190.482	-1522.09407
190.705	-1935.93532
190.927	-841.97965
191.15	-1129.43515
191.373	-1557.19872
191.595	-1478.62771
191.818	-1528.6267
192.041	-872.93256
192.263	-1161.3994
192.486	-538.72619
192.709	-1301.64358
192.931	-2944.85832
193.154	-1322.4573
193.377	-1222.03899
193.599	-1932.35225
193.822	-1543.9386
194.044	-1483.1998
194.267	-1339.96101
194.489	-492.90871
194.712	-1266.26191
194.934	-1569.27221
195.157	-622.18448
195.379	-1386.57807
195.602	-796.63988
195.824	-1369.98122
196.047	-2127.89107
196.269	-1047.21823
196.492	-1313.18782
196.714	-727.97064
196.936	-1379.89254
197.159	-898.49594
197.381	-746.70698
197.604	-561.73617
197.826	-1422.93203
198.048	-1290.62104
198.271	-979.58299
198.493	-1143.71228
198.715	-830.43547
198.938	-1011.26088
199.16	-2771.01025
199.382	-1265.66311
199.604	-914.53948
199.827	-1104.9283
200.049	-1633.39702
200.271	-1094.4381
200.493	-2116.26756
200.715	-1036.42601
200.938	-846.10077
201.16	-934.79182
201.382	-4412.01461
201.604	-1711.02559
201.826	-770.05855
202.048	-789.2958
202.27	-2204.00876
202.492	-2131.60845
202.715	-2512.86942
202.937	-2480.82433
203.159	-1774.54095
203.381	-2691.74892
203.603	-1014.29405
203.825	-6421.69486
204.047	-1133.13137
204.269	-1783.7466
204.491	-1373.28275
204.713	-954.81627
204.935	-1128.06331
205.156	-1318.37313
205.378	-1365.54516
205.6	-944.17591
205.822	-977.26498
206.044	2294.17436
206.266	-2797.83256
206.488	-837.41111
206.71	-1864.91636
206.932	-1262.22885
207.153	-1014.84258
207.375	-811.68953
207.597	-1068.66658
207.819	-816.58257
208.041	-1475.81234
208.262	-2644.99204
208.484	-2475.31449
208.706	-2167.58665
208.927	-3131.35057
209.149	-1277.34433
209.371	-1171.41244
209.593	-9579.8787
209.814	-728.10722
210.036	-5042.99538
210.258	-1466.07431
210.479	-1275.59646
210.701	-2245.46157
210.922	-2601.63002
211.144	-2058.1349
211.366	-2399.69409
211.587	2974.74349
211.809	-1157.01548
212.03	-3287.70842
212.252	-3215.99386
212.473	-1030.11541
212.695	-1184.56547
212.916	-9151.42395
213.138	-7099.73784
213.359	-1032.46472
213.581	-2361.7276
213.802	-7241.41484
214.024	-1404.43399
214.245	93948.7082
214.466	2443.74078
214.688	-1204.38359
214.909	-780.85885
215.131	-2366.27403
215.352	-1760.72937
215.573	-1237.3555
215.795	-1360.4209
216.016	-2333.88505
216.237	3058.92669
216.459	-1781.85518
216.68	-2182.80508
216.901	-1053.33409
217.122	-1301.47066
217.344	-1175.3581
217.565	-1285.9654
217.786	-1229.66025
218.007	-1531.51232
218.228	-944.25357
218.45	-746.7068
218.671	-6182.44605
218.892	-1093.64121
219.113	-1988.39105
219.334	-110.43347
219.555	-1187.96432
219.776	-1051.0857
219.997	-1229.6336
220.219	-1052.16908
220.44	-1648.06029
220.661	-723.09686
220.882	-1468.79635
221.103	-3420.42331
221.324	-2307.93848
221.545	-2117.21207
221.766	-1127.20422
221.987	-2802.53329
222.208	-1104.86006
222.429	-935.35464
222.65	3942.04153
222.87	5662.95852
223.091	-2653.64138
223.312	-2554.82628
223.533	-2044.8277
223.754	-1142.74858
223.975	-3317.43032
224.196	-7898.55761
224.417	-1828.04273
224.637	1525.23104
224.858	178.79228
225.079	-2718.2783
225.3	3078.16663
225.521	-822.60325
225.741	29666.87261
225.962	-1903.68299
226.183	632.14449
226.404	-3798.78042
226.624	-5209.49807
226.845	9235.04238
227.066	-6232.81735
227.286	1283.52111
227.507	337.41454
227.728	369.60609
227.948	924.69554
228.169	221.34074
228.389	237.2646
228.61	134.66045
228.831	180.3857
229.051	13.72966
229.272	95.89013
229.492	135.01879
229.713	39.78058
229.933	90.48636
230.154	74.27906
230.374	134.36483
230.595	90.58479
230.815	54.30183
231.036	94.01473
231.256	-12.61478
231.477	164.38386
231.697	99.72899
231.917	94.02723
232.138	142.9098
232.358	327.37405
232.579	262.53703
232.799	38.99074
233.019	258.54337
233.24	308.42351
233.46	97.86652
233.68	166.88027
233.901	108.53239
234.121	68.52592
234.341	26.51307
234.561	-12.47868
234.782	96.38399
235.002	174.51967
235.222	-2.15805
235.442	153.40057
235.662	73.41088
235.883	152.13437
236.103	112.48492
236.323	91.69959
236.543	64.09643
236.763	98.71876
236.983	103.58327
237.203	96.24742
237.423	139.26607
237.643	218.41495
237.864	189.66925
238.084	45.11758
238.304	60.745
238.524	103.88451
238.744	92.14904
238.964	164.00665
239.184	141.08171
239.404	161.96053
239.624	77.86156
239.843	137.95914
240.063	78.86038
240.283	51.90891
240.503	58.03609
240.723	53.99173
240.943	33.79856
241.163	43.75776
241.383	29.58832
241.603	16.16584
241.822	19.9995
242.042	13.61011
242.262	17.06335
242.482	18.85835
242.702	20.87678
242.921	6.1704
243.141	13.77446
243.361	12.54913
243.581	18.28498
243.8	16.09538
244.02	10.66519
244.24	18.1503
244.459	16.46628
244.679	35.60202
244.899	22.33387
245.118	27.00725
245.338	24.34962
245.558	27.78963
245.777	16.21384
245.997	21.50488
246.216	21.11364
246.436	12.65285
246.655	9.24623
246.875	7.2285
247.094	12.63914
247.314	4.56897
247.533	7.63534
247.753	8.40103
247.972	6.56116
248.192	2.33159
248.411	3.92364
248.631	6.63041
248.85	8.16567
249.07	7.9524
249.289	11.73374
249.508	8.61294
249.728	11.97218
249.947	13.64375
250.166	17.15333
250.386	8.51568
250.605	13.12929
250.824	22.21952
251.044	13.9915
251.263	47.03075
251.482	28.18655
251.701	23.2703
251.921	-0.05926
252.14	7.40059
252.359	8.43583
252.578	19.77249
252.798	7.2867
253.017	17.24455
253.236	8.63197
253.455	11.40578
253.674	21.60887
253.893	9.62966
254.112	15.0337
254.331	21.75827
254.551	18.51138
254.77	9.93658
254.989	27.03856
255.208	21.57767
255.427	31.15466
255.646	26.2414
255.865	41.52896
256.084	16.91813
256.303	22.12031
256.522	27.51364
256.741	7.48985
256.96	6.80225
257.179	17.23197
257.397	21.58714
257.616	11.89906
257.835	14.78594
258.054	29.52227
258.273	20.27599
258.492	19.83119
258.711	12.62527
258.93	6.06097
259.148	8.9137
259.367	8.94864
259.586	11.41472
259.805	4.95948
260.023	9.22381
260.242	6.8805
260.461	5.25716
260.68	2.52035
260.898	7.66711
261.117	2.72257
261.336	1.70533
261.554	6.32831
261.773	6.36234
261.992	1.7982
262.21	6.32112
262.429	6.90904
262.648	12.94185
262.866	14.43415
263.085	10.69838
263.303	9.25
263.522	16.38324
263.74	15.924
263.959	27.67035
264.178	14.72301
264.396	12.85643
264.615	8.90691
264.833	20.44671
265.051	17.37536
265.27	20.2093
265.488	20.63081
265.707	11.99776
265.925	20.67233
266.144	9.83437
266.362	11.26297
266.58	12.10141
266.799	9.43203
267.017	11.4326
267.235	10.16705
267.454	6.97069
267.672	3.88082
267.89	7.97993
268.109	8.70215
268.327	8.26092
268.545	1.84602
268.763	8.05908
268.982	3.69887
269.2	9.20062
269.418	5.73956
269.636	4.63765
269.854	8.39762
270.073	5.76265
270.291	3.79776
270.509	3.87822
270.727	8.43272
270.945	13.87478
271.163	13.33652
271.381	3.37321
271.599	5.79762
271.817	9.67704
272.036	3.36922
272.254	6.74185
272.472	4.61702
272.69	4.45628
272.908	4.89971
273.126	7.29385
273.344	9.49018
273.562	3.52315
273.779	5.01552
273.997	8.11435
274.215	7.52038
274.433	5.48033
274.651	8.02702
274.869	7.99934
275.087	4.9666
275.305	7.64071
275.523	5.02912
275.74	5.68414
275.958	10.45519
276.176	14.81634
276.394	4.85382
276.612	6.2152
276.829	6.06037
277.047	5.79156
277.265	6.0592
277.483	6.45249
277.7	7.78433
277.918	6.72632
278.136	11.45264
278.353	5.49972
278.571	3.60967
278.789	8.82548
279.006	1.90546
279.224	5.80782
279.442	9.16171
279.659	6.89773
279.877	4.49576
280.094	9.6861
280.312	2.28526
280.529	6.49107
280.747	2.34437
280.964	5.56066
281.182	10.41658
281.399	5.92307
281.617	6.87473
281.834	4.90947
282.052	3.62776
282.269	6.17787
282.487	5.0999
282.704	4.44038
282.921	4.08587
283.139	6.13984
283.356	8.03149
283.574	7.29947
283.791	3.39392
284.008	9.4877
284.226	5.59367
284.443	6.28312
284.66	8.02739
284.877	7.21466
285.095	4.22524
285.312	3.08034
285.529	1.97172
285.746	1.67198
285.964	3.92377
286.181	2.69471
286.398	3.66652
286.615	5.01835
286.832	4.9435
287.05	1.29093
287.267	3.43017
287.484	3.45668
287.701	4.95415
287.918	4.60189
288.135	4.928
288.352	2.27187
288.569	2.55767
288.786	4.46979
289.003	3.67564
289.22	5.66974
289.437	3.27488
289.654	5.42365
289.871	5.54594
290.088	5.48684
290.305	4.29891
290.522	3.70014
290.739	3.83876
290.956	5.79218
291.173	6.72931
291.39	6.32274
291.607	4.30999
291.824	3.45391
292.04	2.69565
292.257	5.38622
292.474	5.90478
292.691	3.93544
292.908	1.9141
293.125	3.11169
293.341	2.10434
293.558	9.11425
293.775	4.15476
293.992	4.12313
294.208	1.89505
294.425	2.70031
294.642	3.3231
294.858	5.14461
295.075	1.3535
295.292	3.9888
295.508	4.52532
295.725	6.5431
295.942	3.19348
296.158	2.32469
296.375	3.87868
296.591	3.23395
296.808	3.07783
297.024	3.68868
297.241	4.15911
297.458	4.3431
297.674	0.54407
297.891	3.42744
298.107	2.77333
298.323	2.08796
298.54	4.81901
298.756	2.43805
298.973	1.10759
299.189	5.14178
299.406	2.32389
299.622	5.34396
299.838	5.38958
300.055	4.78565
300.271	1.25629
300.487	2.12002
300.704	2.27355
300.92	1.30871
301.136	7.03918
301.353	5.44999
301.569	3.79611
301.785	4.13185
302.001	4.72044
302.218	4.3021
302.434	4.489
302.65	1.43458
302.866	2.68084
303.083	7.43265
303.299	7.12242
303.515	3.66911
303.731	4.04786
303.947	1.40368
304.163	2.48794
304.379	4.08755
304.595	4.44137
304.812	2.68213
305.028	2.24613
305.244	2.99354
305.46	4.82134
305.676	4.81825
305.892	6.05068
306.108	4.28109
306.324	2.9994
306.54	6.64641
306.756	4.81399
306.972	4.47645
307.187	3.29926
307.403	6.40857
307.619	2.8308
307.835	5.57779
308.051	5.92831
308.267	1.96288
308.483	5.23144
308.699	4.45255
308.914	3.62751
309.13	3.77126
309.346	0.94334
309.562	1.79211
309.778	1.12014
309.993	4.50183
310.209	3.41934
310.425	1.71275
310.641	3.06043
310.856	1.87514
311.072	1.99231
311.288	3.5071
311.503	3.59094
311.719	0.85406
311.935	0.5201
312.15	3.94542
312.366	3.58647
312.581	4.08387
312.797	3.27506
313.013	4.656
313.228	2.39151
313.444	3.55992
313.659	2.12387
313.875	4.10142
314.09	3.47821
314.306	5.67185
314.521	4.86483
314.737	4.66394
314.952	4.06307
315.168	3.76695
315.383	4.25994
315.599	3.40233
315.814	3.25782
316.029	5.10626
316.245	1.53895
316.46	1.10002
316.675	5.99888
316.891	6.88708
317.106	8.41807
317.321	4.74384
317.537	4.51019
317.752	5.07339
317.967	4.92755
318.183	2.52692
318.398	3.38051
318.613	5.50409
318.828	6.09138
319.043	5.13512
319.259	3.38038
319.474	4.16229
319.689	5.90836
319.904	0.72353
320.119	5.2426
320.334	4.31501
320.549	3.47758
320.765	5.83236
320.98	4.26798
321.195	5.42365
321.41	3.57277
321.625	5.41464
321.84	6.97377
322.055	6.92466
322.27	2.6014
322.485	1.96408
322.7	4.24393
322.915	5.75326
323.13	2.52017
323.345	6.41063
323.56	5.14843
323.775	5.06625
323.989	4.811
324.204	4.21351
324.419	5.28215
324.634	1.70176
324.849	3.77325
325.064	7.06264
325.279	5.27402
325.493	4.67438
325.708	5.53332
325.923	2.62656
326.138	2.68422
326.352	6.40548
326.567	5.41929
326.782	3.38009
326.997	2.41175
327.211	4.92909
327.426	4.56577
327.641	3.20551
327.855	1.23912
328.07	4.67056
328.285	6.66449
328.499	3.55642
328.714	4.49642
328.928	5.37203
329.143	4.05894
329.358	5.73093
329.572	5.57946
329.787	6.27138
330.001	8.49977
330.216	1.8448
330.43	6.8316
330.645	6.93805
330.859	5.50354
331.074	2.89775
331.288	4.2476
331.503	6.39956
331.717	2.27944
331.931	3.98847
332.146	4.34784
332.36	7.40498
332.575	4.99841
332.789	4.45256
333.003	3.7616
333.218	4.87822
333.432	2.8947
333.646	5.12754
333.86	6.78231
334.075	7.23209
334.289	3.19206
334.503	2.39429
334.717	4.75145
334.932	4.60763
335.146	5.39558
335.36	3.00032
335.574	4.68032
335.788	4.23667
336.003	5.23217
336.217	5.11849
336.431	4.54347
336.645	3.17299
336.859	2.16972
337.073	4.04901
337.287	4.57143
337.501	2.79683
337.715	4.72191
337.929	5.308
338.143	2.33347
338.357	3.96334
338.571	2.58272
338.785	4.90755
338.999	3.15393
339.213	3.03295
339.427	1.73559
339.641	5.77862
339.855	3.36083
340.069	2.738
340.283	5.44386
340.497	6.50518
340.711	4.52043
340.924	3.46753
341.138	2.22192
341.352	1.55388
341.566	4.08311
341.78	1.06652
341.993	2.93176
342.207	2.25152
342.421	4.21127
342.635	3.58745
342.848	2.83182
343.062	0.43813
343.276	2.64345
343.49	7.12019
343.703	2.72265
343.917	5.0977
344.131	5.20209
344.344	2.71597
344.558	2.95901
344.771	2.27385
344.985	5.5886
345.199	6.31815
345.412	4.12248
345.626	4.24895
345.839	1.14725
346.053	2.0129
346.266	2.04398
346.48	4.78693
346.693	4.03948
346.907	4.27076
347.12	2.33406
347.334	4.15089
347.547	4.12868
347.76	3.16445
347.974	5.46813
348.187	4.1777
348.401	3.09627
348.614	2.71684
348.827	3.04717
349.041	4.38719
349.254	1.01545
349.467	3.45804
349.681	1.89827
349.894	2.87156
350.107	5.41743
350.32	6.62237
350.534	1.33212
350.747	3.24918
350.96	2.11614
351.173	2.56253
351.386	2.82191
351.6	2.79433
351.813	2.43112
352.026	3.43704
352.239	1.52037
352.452	2.7951
352.665	4.99331
352.878	3.24117
353.092	6.96743
353.305	4.5527
353.518	3.66571
353.731	2.40276
353.944	5.13951
354.157	2.546
354.37	2.19946
354.583	1.95931
354.796	1.07761
355.009	5.26994
355.222	3.50137
355.435	3.27849
355.647	4.9848
355.86	1.9347
356.073	3.26898
356.286	2.65217
356.499	4.40681
356.712	3.88308
356.925	3.80073
357.138	4.72925
357.35	1.85639
357.563	2.66863
357.776	3.34337
357.989	2.66454
358.201	3.98899
358.414	3.41073
358.627	4.61453
358.84	2.82842
359.052	1.55185
359.265	1.64094
359.478	4.6412
359.69	-0.53765
359.903	4.28678
360.116	4.18793
360.328	0.8227
360.541	4.13932
360.753	1.73078
360.966	2.13877
361.179	2.32885
361.391	2.13778
361.604	1.60225
361.816	2.1963
362.029	1.93145
362.241	1.54892
362.454	1.9804
362.666	1.70806
362.879	2.75128
363.091	2.23811
363.304	1.62972
363.516	2.63937
363.728	1.11507
363.941	3.51733
364.153	1.95202
364.366	-0.24879
364.578	1.38842
364.79	3.43955
365.003	2.6336
365.215	2.39389
365.427	3.39124
365.639	4.26753
365.852	3.07752
366.064	5.15107
366.276	2.05228
366.488	3.43563
366.701	2.30475
366.913	2.57769
367.125	2.66574
367.337	1.95414
367.549	2.14769
367.762	2.95701
367.974	2.93138
368.186	1.75948
368.398	4.09855
368.61	3.74962
368.822	3.88763
369.034	2.94365
369.246	3.53442
369.458	6.00509
369.67	1.39785
369.882	5.42548
370.094	0.29956
370.306	5.03349
370.518	2.42891
370.73	2.00155
370.942	1.78081
371.154	2.4805
371.366	2.1103
371.578	3.04808
371.79	1.6135
372.002	4.53298
372.214	5.08552
372.425	3.27555
372.637	4.66163
372.849	3.14262
373.061	-0.09964
373.273	3.47027
373.484	3.49619
373.696	3.87869
373.908	-0.1664
374.12	4.25632
374.331	3.33937
374.543	1.72504
374.755	1.49646
374.967	2.94155
375.178	3.86994
375.39	2.50133
375.602	2.89692
375.813	1.00067
376.025	0.9443
376.236	2.50971
376.448	2.82146
376.66	2.03956
376.871	1.88802
377.083	3.87377
377.294	3.93551
377.506	1.9848
377.717	4.32207
377.929	2.82089
378.14	1.53193
378.352	3.21402
378.563	3.20683
378.775	4.27851
378.986	1.82085
379.197	2.69117
379.409	1.95836
379.62	3.77248
379.832	2.84305
380.043	2.35792
380.254	2.99491
380.466	1.04671
380.677	6.21742
380.888	5.54061
381.1	6.09425
381.311	5.70356
381.522	2.692
381.733	6.58672
381.945	2.32786
382.156	2.96718
382.367	1.97271
382.578	6.28547
382.789	6.12423
383.001	2.11641
383.212	4.402
383.423	4.56196
383.634	4.13757
383.845	3.29875
384.056	2.18576
384.267	2.48629
384.478	2.53334
384.69	1.08334
384.901	3.43327
385.112	3.0744
385.323	4.55887
385.534	3.05329
385.745	2.83611
385.956	3.15057
386.167	1.46085
386.378	3.32913
386.588	0.99746
386.799	1.67745
387.01	0.40728
387.221	3.70017
387.432	2.4307
387.643	5.12057
387.854	2.19509
388.065	2.11249
388.275	2.28314
388.486	2.00386
388.697	2.45727
388.908	2.24889
389.119	4.09384
389.329	4.89439
389.54	2.69256
389.751	2.86831
389.962	4.20969
390.172	3.13079
390.383	1.74117
390.594	1.6054
390.804	1.72369
391.015	1.78584
391.226	2.48749
391.436	3.26154
391.647	2.90795
391.858	3.3182
392.068	0.4303
392.279	0.92047
392.489	2.46327
392.7	3.90635
392.91	1.05378
393.121	1.56169
393.331	2.96107
393.542	3.82858
393.752	3.18351
393.963	2.57716
394.173	2.45237
394.384	3.32021
394.594	2.36808
394.804	1.00133
395.015	2.59187
395.225	3.32382
395.436	1.10238
395.646	3.17245
395.856	1.28249
396.067	0.77844
396.277	3.80251
396.487	3.10136
396.697	2.54654
396.908	3.55168
397.118	3.51945
397.328	2.6983
397.538	3.81494
397.749	1.6599
397.959	3.64861
398.169	3.52106
398.379	0.99663
398.589	3.60774
398.8	2.75531
399.01	2.59414
399.22	2.17155
399.43	5.50418
399.64	2.14771
399.85	3.30525
400.06	2.307
400.27	1.84176
400.48	2.56761
400.69	4.46982
400.9	1.85915
401.11	1.63274
401.32	3.82679
401.53	1.89395
401.74	4.72437
401.95	3.64678
402.16	1.40908
402.37	3.29688
402.58	1.79138
402.79	3.61016
403	3.75366
403.209	1.92341
403.419	3.59611
403.629	2.03822
403.839	3.47276
404.049	3.66802
404.258	1.47981
404.468	1.29603
404.678	3.25282
404.888	3.17799
405.097	1.30333
405.307	2.33383
405.517	3.08832
405.727	2.741
405.936	2.0777
406.146	2.75352
406.356	4.08559
406.565	2.5296
406.775	1.89742
406.984	2.06654
407.194	4.6501
407.404	2.77643
407.613	3.00584
407.823	3.50994
408.032	4.13801
408.242	3.91843
408.451	2.0449
408.661	2.47683
408.87	5.12205
409.08	2.13212
409.289	3.24468
409.499	2.83029
409.708	2.89687
409.918	0.25536
410.127	2.69398
410.336	4.63783
410.546	3.50139
410.755	2.1413
410.964	2.07933
411.174	1.78818
411.383	3.52879
411.592	3.25138
411.802	1.50297
412.011	4.01017
412.22	2.89886
412.429	4.69485
412.639	4.31832
412.848	4.45785
413.057	4.88106
413.266	4.34816
413.475	2.81528
413.685	3.96371
413.894	4.01329
414.103	4.44493
414.312	3.78248
414.521	2.94914
414.73	3.18181
414.939	5.22076
415.148	3.61906
415.357	3.23175
415.566	2.40975
415.776	2.21337
415.985	2.10723
416.194	3.68496
416.403	4.62791
416.611	1.29436
416.82	1.96096
417.029	2.61231
417.238	1.73948
417.447	1.42788
417.656	1.83721
417.865	1.62927
418.074	1.81893
418.283	2.07361
418.492	2.95014
418.7	2.77653
418.909	3.56443
419.118	2.27609
419.327	2.44332
419.536	2.15412
419.744	1.37066
419.953	2.82536
420.162	2.78604
420.371	1.20975
420.579	0.82164
420.788	2.28493
420.997	2.09719
421.205	2.17556
421.414	1.72444
421.623	1.56186
421.831	1.25147
422.04	2.2461
422.249	1.08193
422.457	2.07904
422.666	1.29746
422.874	2.67018
423.083	2.6052
423.291	2.50664
423.5	1.91965
423.708	2.1401
423.917	2.53916
424.125	1.84658
424.334	1.49002
424.542	3.78711
424.751	2.70716
424.959	2.62224
425.167	2.92117
425.376	2.87536
425.584	2.1347
