Data from WindowProjectSample_Transmission__26__00026__003869328598151811.txt Node

Date: Mon May 05 17:26:57 EDT 2025
User: jessi
Spectrometer: SR400872
Trigger mode: 0
Integration Time (sec): 5.000010E-1
Scans to average: 20
Electric dark correction enabled: true
Nonlinearity correction enabled: true
Boxcar width: 0
XAxis mode: Wavelengths
Number of Pixels in Spectrum: 3648
>>>>>Begin Spectral Data<<<<<
184.909	20251.2129
185.132	-5022.55362
185.355	-3017.04386
185.578	-17590.27685
185.801	1951.10225
186.024	10157.6859
186.247	-1592.5456
186.47	1096.68421
186.693	280.35737
186.916	227.74288
187.139	-3578.33353
187.362	3199.49461
187.585	4079.78072
187.808	3691.61742
188.031	-13.53673
188.254	-49034.60949
188.476	-681.04074
188.699	6076.1539
188.922	634.20324
189.145	-14473.22311
189.368	-582.95947
189.591	-1367.73328
189.813	3103.4664
190.036	-50603.37337
190.259	-835.51446
190.482	-4087.16678
190.705	6986.49451
190.927	-2473.36763
191.15	13302.34736
191.373	3164.24382
191.595	-8514.9422
191.818	-3977.75271
192.041	-7600.94145
192.263	-3335.94619
192.486	-828.95865
192.709	-3869.52248
192.931	7349.82272
193.154	-27181.49009
193.377	-2728.49825
193.599	-2251.37026
193.822	-8906.77556
194.044	-1990.71828
194.267	1120.52026
194.489	290.5171
194.712	-42377.83761
194.934	-31169.87223
195.157	1118.65356
195.379	1396.17086
195.602	-6773.19133
195.824	-1246.87283
196.047	-8684.91398
196.269	2640.29471
196.492	-6597.27236
196.714	26919.55828
196.936	-8075.68652
197.159	-1134.35162
197.381	1109.53628
197.604	513.02125
197.826	12004.67842
198.048	-10709.53991
198.271	-2779.63688
198.493	7497.62321
198.715	2349.13778
198.938	-388.67691
199.16	7033.87503
199.382	-98005.70944
199.604	2198.70988
199.827	-1070.17147
200.049	-2936.03656
200.271	14661.93502
200.493	1179.4285
200.715	-35787.15937
200.938	-5869.85041
201.16	-4010.82061
201.382	19334.05672
201.604	2248.06763
201.826	2271.72198
202.048	-1839.13795
202.27	-1760.34113
202.492	-36105.48641
202.715	2798.38327
202.937	-4305.79234
203.159	-5962.04402
203.381	1445.51519
203.603	6236.69932
203.825	6219.40819
204.047	2134.2972
204.269	-2841.29536
204.491	2106.95095
204.713	5714.87019
204.935	-471879.27887
205.156	1214.83598
205.378	-2863.20631
205.6	1558.09713
205.822	148208.56291
206.044	-858.58262
206.266	1500.72179
206.488	4769.63451
206.71	-5177.60993
206.932	1117.15485
207.153	12093.68051
207.375	-7091.27433
207.597	-36868.19227
207.819	-2727.7295
208.041	2342.67081
208.262	529.69978
208.484	701.28397
208.706	-756.59187
208.927	-854.04615
209.149	486.14397
209.371	-2768.93042
209.593	-201.36956
209.814	-766.94339
210.036	489.16353
210.258	-630.18941
210.479	1623.61351
210.701	1646.23507
210.922	3193.40761
211.144	-3736.74498
211.366	2023.46963
211.587	7851.58571
211.809	-7792.40689
212.03	2313.11821
212.252	440.55222
212.473	2042.79001
212.695	-6426.4315
212.916	2820.86919
213.138	-540.2264
213.359	3560.80179
213.581	4805.51693
213.802	-810.46677
214.024	1113.94827
214.245	1941.40281
214.466	3170.25117
214.688	-3022.91249
214.909	-1217.35561
215.131	-1707.23154
215.352	-2988.39959
215.573	14349.26451
215.795	4991.39681
216.016	5168.60637
216.237	817.81198
216.459	3261.42547
216.68	1692.56468
216.901	4834.11587
217.122	-2912.76264
217.344	-11500.55582
217.565	3389.61772
217.786	8781.07979
218.007	16069.48848
218.228	-761.55146
218.45	5666.70244
218.671	736.99157
218.892	35788.04661
219.113	1489.14752
219.334	-339.0837
219.555	8864.91516
219.776	3016.9441
219.997	21650.37669
220.219	2635.06963
220.44	-10003.84472
220.661	448.84483
220.882	1483.60557
221.103	-1100.32586
221.324	2181.2064
221.545	2275.6933
221.766	-8736.82568
221.987	845.85783
222.208	1654.5378
222.429	4256.23937
222.65	261.63213
222.87	17909.09426
223.091	691.83988
223.312	597.06113
223.533	1319.07209
223.754	1473.23778
223.975	1362.64907
224.196	1933.57724
224.417	1277.62401
224.637	551.49353
224.858	95.96607
225.079	1086.46075
225.3	634.19493
225.521	3727.84125
225.741	435.86773
225.962	491.09223
226.183	133.81112
226.404	668.6063
226.624	419.72787
226.845	647.73734
227.066	387.602
227.286	243.5649
227.507	117.50605
227.728	108.87586
227.948	233.5352
228.169	72.44998
228.389	81.81686
228.61	46.02652
228.831	58.5893
229.051	1.69501
229.272	37.64058
229.492	55.45723
229.713	13.02569
229.933	37.47653
230.154	32.36743
230.374	51.91363
230.595	35.20804
230.815	23.41369
231.036	37.04271
231.256	-10.44987
231.477	67.73674
231.697	36.37257
231.917	37.14205
232.138	53.16396
232.358	108.55118
232.579	99.14004
232.799	16.09021
233.019	95.6192
233.24	113.82969
233.46	34.79124
233.68	58.82514
233.901	42.54967
234.121	24.93615
234.341	11.99708
234.561	-0.47888
234.782	20.62729
235.002	62.59307
235.222	-2.82349
235.442	61.82844
235.662	30.94645
235.883	60.93812
236.103	48.90588
236.323	34.89976
236.543	25.75676
236.763	37.85148
236.983	42.11431
237.203	39.4098
237.423	57.72756
237.643	83.07631
237.864	69.47603
238.084	19.98959
238.304	25.32989
238.524	43.20289
238.744	37.67674
238.964	71.79103
239.184	57.42009
239.404	62.15356
239.624	35.46486
239.843	58.06102
240.063	34.9177
240.283	20.56612
240.503	24.67862
240.723	23.89177
240.943	13.18435
241.163	18.71357
241.383	13.96824
241.603	7.16005
241.822	9.06853
242.042	5.81344
242.262	7.87123
242.482	9.24305
242.702	10.29556
242.921	3.01685
243.141	6.1829
243.361	6.39608
243.581	8.95973
243.8	6.9805
244.02	5.2592
244.24	9.30174
244.459	9.03805
244.679	17.6511
244.899	11.66701
245.118	12.429
245.338	11.17592
245.558	13.22419
245.777	8.10844
245.997	9.91145
246.216	10.17356
246.436	5.95384
246.655	4.54446
246.875	3.0268
247.094	5.9468
247.314	2.12976
247.533	3.60867
247.753	4.2593
247.972	3.09819
248.192	1.13089
248.411	1.74627
248.631	3.47455
248.85	4.44116
249.07	3.69191
249.289	5.62136
249.508	4.9524
249.728	6.51362
249.947	6.86524
250.166	8.56082
250.386	4.27159
250.605	5.87689
250.824	10.21227
251.044	7.12913
251.263	27.92458
251.482	14.4462
251.701	11.05247
251.921	0.06167
252.14	3.19804
252.359	3.90635
252.578	9.6514
252.798	3.08815
253.017	8.67831
253.236	3.75152
253.455	5.55834
253.674	9.80641
253.893	4.59738
254.112	7.81299
254.331	10.4994
254.551	8.75806
254.77	3.27821
254.989	12.70299
255.208	10.32846
255.427	15.14174
255.646	10.27017
255.865	21.31054
256.084	8.74134
256.303	9.59554
256.522	12.93558
256.741	3.01105
256.96	2.63944
257.179	7.77449
257.397	10.38405
257.616	5.20831
257.835	6.10516
258.054	14.93793
258.273	10.48498
258.492	10.80882
258.711	6.29185
258.93	3.23092
259.148	4.58481
259.367	4.50138
259.586	5.39194
259.805	2.33126
260.023	5.09345
260.242	3.905
260.461	2.55054
260.68	1.35453
260.898	4.31553
261.117	1.31077
261.336	1.02954
261.554	3.25344
261.773	3.28508
261.992	0.84066
262.21	3.11338
262.429	3.50851
262.648	7.23594
262.866	7.97922
263.085	5.45293
263.303	4.59577
263.522	8.69145
263.74	8.57844
263.959	14.72127
264.178	6.71905
264.396	6.43646
264.615	4.69393
264.833	10.4019
265.051	8.52114
265.27	10.37896
265.488	10.79193
265.707	5.96841
265.925	10.49118
266.144	4.72092
266.362	5.45286
266.58	5.04454
266.799	4.87458
267.017	6.02012
267.235	4.96979
267.454	3.30213
267.672	1.80371
267.89	4.05567
268.109	4.28487
268.327	4.37899
268.545	0.92412
268.763	3.84764
268.982	1.4082
269.2	4.16286
269.418	2.74988
269.636	1.76905
269.854	4.88758
270.073	2.96515
270.291	1.8443
270.509	1.6617
270.727	4.18397
270.945	7.03346
271.163	6.91115
271.381	1.43478
271.599	3.06119
271.817	5.34233
272.036	1.68688
272.254	2.99665
272.472	2.37462
272.69	2.42872
272.908	2.21284
273.126	4.33622
273.344	5.15136
273.562	1.82787
273.779	2.49303
273.997	3.59306
274.215	4.26202
274.433	2.85893
274.651	4.26801
274.869	4.58012
275.087	2.81939
275.305	4.09538
275.523	2.36453
275.74	2.59204
275.958	5.37141
276.176	8.00018
276.394	2.36222
276.612	3.09106
276.829	3.48237
277.047	2.60196
277.265	2.81515
277.483	3.31467
277.7	4.19129
277.918	3.57122
278.136	6.02504
278.353	2.80564
278.571	1.67332
278.789	4.18601
279.006	0.91365
279.224	2.87905
279.442	4.92708
279.659	3.20134
279.877	2.41041
280.094	5.49206
280.312	1.00884
280.529	3.31495
280.747	1.00787
280.964	2.5728
281.182	5.69927
281.399	2.58681
281.617	3.64175
281.834	2.47588
282.052	1.83077
282.269	3.05887
282.487	2.40189
282.704	1.90263
282.921	2.1951
283.139	3.34702
283.356	3.73226
283.574	3.67518
283.791	1.7761
284.008	5.33904
284.226	2.74908
284.443	3.27999
284.66	4.29339
284.877	3.44439
285.095	2.01754
285.312	1.61033
285.529	0.94643
285.746	0.76374
285.964	1.97797
286.181	1.36667
286.398	1.88876
286.615	2.56022
286.832	2.50853
287.05	0.5919
287.267	1.77935
287.484	1.78106
287.701	2.46541
287.918	2.58231
288.135	2.59506
288.352	1.26508
288.569	1.43058
288.786	2.43632
289.003	1.96099
289.22	2.98354
289.437	1.64078
289.654	2.89339
289.871	2.98348
290.088	2.81933
290.305	2.25653
290.522	1.70244
290.739	1.86855
290.956	2.96147
291.173	3.43928
291.39	3.36863
291.607	2.28869
291.824	1.64702
292.04	1.20339
292.257	2.82052
292.474	3.12531
292.691	1.69148
292.908	0.86222
293.125	1.70643
293.341	1.16836
293.558	4.89561
293.775	1.85126
293.992	1.93049
294.208	0.91148
294.425	1.23399
294.642	1.86943
294.858	2.61294
295.075	0.77172
295.292	1.9314
295.508	2.32671
295.725	3.90434
295.942	1.67232
296.158	1.30153
296.375	2.11214
296.591	1.55599
296.808	1.76767
297.024	1.9867
297.241	2.1908
297.458	2.4905
297.674	0.3172
297.891	1.905
298.107	1.56655
298.323	1.16063
298.54	3.17247
298.756	1.35861
298.973	0.80485
299.189	3.25894
299.406	1.44554
299.622	2.94453
299.838	2.81007
300.055	2.72339
300.271	0.85112
300.487	1.25897
300.704	1.52855
300.92	0.92185
301.136	4.4304
301.353	2.81038
301.569	2.13748
301.785	2.4269
302.001	2.94746
302.218	2.4541
302.434	2.66857
302.65	1.01966
302.866	1.6642
303.083	4.14608
303.299	4.02676
303.515	2.32224
303.731	2.43697
303.947	1.01226
304.163	1.64164
304.379	2.4176
304.595	2.611
304.812	1.59687
305.028	1.67156
305.244	2.03481
305.46	2.87479
305.676	3.05026
305.892	3.40151
306.108	2.7494
306.324	1.85947
306.54	3.92695
306.756	2.77611
306.972	2.7694
307.187	2.2024
307.403	3.75443
307.619	1.7558
307.835	3.43526
308.051	3.64295
308.267	1.33592
308.483	3.31779
308.699	2.78201
308.914	2.29749
309.13	2.1225
309.346	1.04931
309.562	1.40544
309.778	1.11797
309.993	2.81361
310.209	2.40789
310.425	1.3704
310.641	2.11531
310.856	1.47969
311.072	1.34542
311.288	2.18132
311.503	2.38165
311.719	0.77644
311.935	0.74429
312.15	2.67892
312.366	2.21365
312.581	2.63605
312.797	2.27982
313.013	3.04238
313.228	1.75517
313.444	2.16472
313.659	1.69497
313.875	2.73354
314.09	2.27629
314.306	3.54718
314.521	2.98643
314.737	3.03145
314.952	2.27876
315.168	2.29186
315.383	2.64051
315.599	2.01434
315.814	2.05061
316.029	2.96997
316.245	1.27285
316.46	0.83165
316.675	3.31662
316.891	3.83615
317.106	4.93387
317.321	2.61562
317.537	2.99892
317.752	3.16392
317.967	3.2271
318.183	1.48468
318.398	1.92149
318.613	3.07962
318.828	3.64966
319.043	3.05869
319.259	2.1784
319.474	2.52671
319.689	3.28639
319.904	0.94433
320.119	3.05686
320.334	2.60755
320.549	2.18797
320.765	3.31499
320.98	2.60624
321.195	2.8381
321.41	2.29896
321.625	2.83724
321.84	3.91981
322.055	3.94065
322.27	1.71881
322.485	1.40715
322.7	2.54609
322.915	3.2083
323.13	1.68463
323.345	3.81887
323.56	2.8146
323.775	3.03309
323.989	2.81558
324.204	2.65839
324.419	3.37069
324.634	1.40995
324.849	2.13357
325.064	5.41384
325.279	3.285
325.493	2.77265
325.708	3.19711
325.923	1.65136
326.138	1.96373
326.352	3.89937
326.567	3.39027
326.782	2.06312
326.997	1.97214
327.211	2.8707
327.426	2.67336
327.641	2.05519
327.855	0.99771
328.07	2.79619
328.285	3.95239
328.499	2.06027
328.714	2.59716
328.928	2.99959
329.143	2.3879
329.358	3.28991
329.572	3.28198
329.787	3.59737
330.001	4.78078
330.216	1.40544
330.43	4.12287
330.645	3.8665
330.859	3.11383
331.074	1.74212
331.288	2.53037
331.503	3.6198
331.717	1.54955
331.931	2.71583
332.146	2.69119
332.36	4.1246
332.575	2.79458
332.789	2.77502
333.003	2.55958
333.218	2.91021
333.432	1.94008
333.646	3.31082
333.86	4.04348
334.075	3.86984
334.289	2.06318
334.503	1.52137
334.717	2.91225
334.932	2.97376
335.146	3.40911
335.36	2.05846
335.574	3.07717
335.788	2.7171
336.003	3.38198
336.217	3.05075
336.431	2.97117
336.645	2.05547
336.859	1.41964
337.073	2.38941
337.287	2.75304
337.501	1.53868
337.715	2.72234
337.929	3.21747
338.143	1.47469
338.357	2.34479
338.571	1.79279
338.785	2.9703
338.999	2.09951
339.213	1.97148
339.427	1.32855
339.641	3.68838
339.855	2.21512
340.069	2.11929
340.283	3.22922
340.497	4.03782
340.711	2.8534
340.924	2.42944
341.138	1.71264
341.352	1.42378
341.566	2.61933
341.78	1.25066
341.993	2.17179
342.207	1.7649
342.421	2.61219
342.635	2.30299
342.848	2.13855
343.062	0.76883
343.276	1.88232
343.49	4.13183
343.703	1.9501
343.917	3.32863
344.131	3.29822
344.344	1.78325
344.558	2.11449
344.771	1.43594
344.985	3.78356
345.199	3.73607
345.412	2.63601
345.626	2.74767
345.839	1.0944
346.053	1.5213
346.266	1.58922
346.48	2.97792
346.693	2.73554
346.907	2.65845
347.12	1.74415
347.334	2.65645
347.547	2.65106
347.76	2.33742
347.974	3.42334
348.187	2.6299
348.401	2.1829
348.614	1.86165
348.827	2.11514
349.041	2.8318
349.254	1.02909
349.467	2.17665
349.681	1.50097
349.894	1.81749
350.107	3.42743
350.32	3.79531
350.534	1.24904
350.747	2.1379
350.96	1.71264
351.173	1.84624
351.386	2.15275
351.6	2.00861
351.813	1.91937
352.026	2.36232
352.239	1.33254
352.452	2.07515
352.665	3.23164
352.878	2.34481
353.092	3.83454
353.305	2.97296
353.518	2.59522
353.731	1.67777
353.944	3.26201
354.157	2.03853
354.37	1.81248
354.583	1.61783
354.796	1.21328
355.009	3.0939
355.222	2.67727
355.435	2.39668
355.647	3.08901
355.86	1.73471
356.073	2.41756
356.286	2.04094
356.499	2.96777
356.712	2.74102
356.925	2.81235
357.138	2.93975
357.35	1.69864
357.563	2.08173
357.776	2.43002
357.989	2.20526
358.201	2.77785
358.414	2.58632
358.627	3.33767
358.84	2.25105
359.052	1.4667
359.265	1.77751
359.478	3.11079
359.69	0.59602
359.903	2.90533
360.116	3.10324
360.328	1.21351
360.541	2.93049
360.753	1.72846
360.966	2.0186
361.179	2.13528
361.391	1.98847
361.604	1.75854
361.816	2.00084
362.029	1.97078
362.241	1.76181
362.454	1.98409
362.666	1.71786
362.879	2.58011
363.091	2.05086
363.304	1.86807
363.516	2.25723
363.728	1.60598
363.941	2.68545
364.153	2.16484
364.366	0.98993
364.578	1.67803
364.79	2.6042
365.003	2.42079
365.215	1.97142
365.427	2.72392
365.639	3.16218
365.852	2.55449
366.064	3.95945
366.276	2.20703
366.488	2.65689
366.701	1.99656
366.913	2.29567
367.125	2.19608
367.337	1.71172
367.549	2.05599
367.762	2.50174
367.974	2.4603
368.186	1.94966
368.398	3.12031
368.61	2.89288
368.822	2.94881
369.034	2.40211
369.246	3.03345
369.458	4.62123
369.67	1.80666
369.882	3.78144
370.094	1.19064
370.306	3.64191
370.518	2.28216
370.73	2.10829
370.942	2.03674
371.154	2.49456
371.366	2.21317
371.578	2.78879
371.79	2.17222
372.002	3.43498
372.214	3.96565
372.425	2.56975
372.637	3.46169
372.849	2.85965
373.061	1.25923
373.273	2.92979
373.484	2.78936
373.696	3.32992
373.908	1.30202
374.12	3.46322
374.331	2.96527
374.543	2.18221
374.755	2.09554
374.967	2.77492
375.178	3.32563
375.39	2.41809
375.602	2.84439
375.813	1.74624
376.025	2.11736
376.236	2.7997
376.448	2.96293
376.66	2.58806
376.871	2.55656
377.083	3.69648
377.294	3.90604
377.506	2.54955
377.717	3.75064
377.929	3.13023
378.14	2.5021
378.352	3.13149
378.563	3.23695
378.775	3.83504
378.986	2.27107
379.197	2.89281
379.409	2.45232
379.62	3.47302
379.832	3.31289
380.043	2.80072
380.254	3.03582
380.466	2.2748
380.677	4.99714
380.888	4.37232
381.1	4.79938
381.311	4.8948
381.522	3.18568
381.733	5.06587
381.945	3.0455
382.156	3.11828
382.367	2.77023
382.578	5.12437
382.789	4.9845
383.001	2.92045
383.212	4.36231
383.423	4.30475
383.634	4.0363
383.845	3.78494
384.056	3.07941
384.267	3.44709
384.478	3.34905
384.69	2.60161
384.901	3.66317
385.112	3.63748
385.323	4.51418
385.534	3.79384
385.745	3.67163
385.956	3.68265
386.167	2.85857
386.378	3.88298
386.588	3.00857
386.799	2.97763
387.01	2.52075
387.221	4.08185
387.432	3.52041
387.643	4.79922
387.854	3.42185
388.065	3.41994
388.275	3.54057
388.486	3.36289
388.697	3.59778
388.908	3.38292
389.119	4.42139
389.329	4.71094
389.54	3.82005
389.751	4.024
389.962	4.66202
390.172	3.94924
390.383	3.73106
390.594	3.44752
390.804	3.47058
391.015	3.5377
391.226	4.01379
391.436	4.20585
391.647	4.23985
391.858	4.3481
392.068	3.02963
392.279	3.3993
392.489	4.22004
392.7	4.73549
392.91	3.59488
393.121	3.69559
393.331	4.40517
393.542	4.82966
393.752	4.59228
393.963	4.44818
394.173	4.38248
394.384	4.51175
394.594	4.23926
394.804	3.52133
395.015	4.36188
395.225	4.64462
395.436	3.74346
395.646	4.58625
395.856	3.91974
396.067	3.42648
396.277	4.85455
396.487	4.62973
396.697	4.57343
396.908	4.7021
397.118	4.7217
397.328	4.53883
397.538	4.99101
397.749	3.98109
397.959	4.98571
398.169	4.85715
398.379	3.61183
398.589	4.88415
398.8	4.62717
399.01	4.63627
399.22	4.31034
399.43	5.94041
399.64	4.55432
399.85	4.88912
400.06	4.66692
400.27	4.13708
400.48	4.59428
400.69	5.54868
400.9	4.38348
401.11	4.09013
401.32	5.21996
401.53	4.33821
401.74	5.75064
401.95	5.14452
402.16	4.32279
402.37	4.91976
402.58	4.52354
402.79	5.19985
403	5.54824
403.209	4.55182
403.419	5.67157
403.629	4.39596
403.839	5.51642
404.049	5.54085
404.258	4.72737
404.468	4.57414
404.678	5.30487
404.888	5.72213
405.097	4.86708
405.307	5.05364
405.517	5.56281
405.727	5.41688
405.936	4.95771
406.146	5.36535
406.356	5.97085
406.565	5.13396
406.775	4.85393
406.984	4.88428
407.194	6.20375
407.404	5.1138
407.613	5.63882
407.823	5.63173
408.032	5.868
408.242	5.78034
408.451	5.02524
408.661	5.2646
408.87	6.28839
409.08	4.82128
409.289	5.52839
409.499	5.55609
409.708	5.41366
409.918	4.12259
410.127	5.61736
410.336	6.36808
410.546	5.79021
410.755	5.22686
410.964	5.2727
411.174	4.98068
411.383	5.78724
411.592	5.65678
411.802	4.93022
412.011	5.89117
412.22	5.40947
412.429	6.55746
412.639	6.40239
412.848	6.18894
413.057	6.34844
413.266	6.34699
413.475	5.71683
413.685	5.91861
413.894	6.20253
414.103	6.27875
414.312	6.20416
414.521	5.52829
414.73	5.81838
414.939	6.96953
415.148	6.10842
415.357	5.98411
415.566	5.63528
415.776	5.60408
415.985	5.79419
416.194	6.55303
416.403	7.09765
416.611	5.35777
416.82	5.90629
417.029	6.19859
417.238	5.84538
417.447	5.6962
417.656	6.1075
417.865	5.824
418.074	6.08049
418.283	6.33314
418.492	6.88569
418.7	6.66767
418.909	7.58623
419.118	6.78817
419.327	7.0888
419.536	6.98365
419.744	6.91972
419.953	8.0489
420.162	8.24647
420.371	7.65348
420.579	8.03375
420.788	8.82589
420.997	8.9563
421.205	9.17563
421.414	8.93041
421.623	8.76201
421.831	8.72114
422.04	9.19267
422.249	8.45601
422.457	8.86123
422.666	8.09882
422.874	8.92595
423.083	8.936
423.291	8.95805
423.5	8.82005
423.708	9.13307
423.917	9.5348
424.125	9.07236
424.334	8.93946
424.542	10.50411
424.751	10.02252
424.959	9.64678
425.167	9.79765
425.376	9.64449
425.584	8.63925
425.793	8.61146
426.001	7.81491
426.209	8.0584
426.418	7.1053
426.626	6.93205
426.834	6.83475
427.042	7.0672
