Data from WindowProjectSample_Transmission__47__00047.txt Node

Date: Sat May 03 16:41:38 EDT 2025
User: jessi
Spectrometer: SR400872
Trigger mode: 0
Integration Time (sec): 5.000010E-1
Scans to average: 6
Electric dark correction enabled: true
Nonlinearity correction enabled: true
Boxcar width: 0
XAxis mode: Wavelengths
Number of Pixels in Spectrum: 3648
>>>>>Begin Spectral Data<<<<<
184.909	174654.32662
185.132	1677.12709
185.355	-1961.16974
185.578	3223.67807
185.801	-215.88171
186.024	6060.02407
186.247	1085.83088
186.47	1024.70438
186.693	-467.71644
186.916	372.31539
187.139	9763.82719
187.362	3674.34647
187.585	2721.1276
187.808	-1647.80469
188.031	79.85198
188.254	8149.73787
188.476	514.6953
188.699	-4007.79627
188.922	-374.13243
189.145	-4169.93266
189.368	-457.70249
189.591	-895.55648
189.813	-2276.74974
190.036	4993.34825
190.259	2947.76753
190.482	2266.60931
190.705	8658.7867
190.927	-1710.22569
191.15	-1698.14733
191.373	4846.91477
191.595	-1933.62724
191.818	8893.50106
192.041	-110.67374
192.263	-2477.88423
192.486	-949.43106
192.709	9062.13253
192.931	-2614.58939
193.154	-1958.68859
193.377	4477.05701
193.599	5892.06787
193.822	-2072.51135
194.044	-1834.66139
194.267	527.12622
194.489	205.13756
194.712	2104.52226
194.934	3492.15236
195.157	-8563.43717
195.379	2073.77314
195.602	5256.65526
195.824	5491.38811
196.047	-9518.89069
196.269	-11540.52618
196.492	-1125.12017
196.714	-5244.62358
196.936	4475.64261
197.159	-2523.19603
197.381	-574.09676
197.604	1017.57248
197.826	-3212.96209
198.048	-1228.548
198.271	-12631.98776
198.493	10155.20271
198.715	-2541.21011
198.938	-717.4824
199.16	-4303.71855
199.382	1659.40153
199.604	-1429.16738
199.827	-1325.79216
200.049	-4046.95207
200.271	2412.6662
200.493	-26157.57895
200.715	4756.26681
200.938	13322.97511
201.16	-221420.95719
201.382	-5826.31637
201.604	-1096.64914
201.826	-6657.20064
202.048	-7057.07181
202.27	-4278.16945
202.492	-3668.76911
202.715	-1325.55201
202.937	-3478.49166
203.159	1114.27152
203.381	-95155.46865
203.603	-1010.40607
203.825	-1433.37018
204.047	2256.95637
204.269	-905.55852
204.491	6642.48793
204.713	-8890.09581
204.935	36494.58856
205.156	2221.63161
205.378	-7347.36685
205.6	-1668.64875
205.822	6310.83994
206.044	-232.33892
206.266	-2163.70506
206.488	706.18057
206.71	-505898.29167
206.932	-14872.51074
207.153	11764.29375
207.375	-2197.05824
207.597	15381.47035
207.819	1632.95703
208.041	6838.52866
208.262	634.1749
208.484	-848.9926
208.706	-855.644
208.927	10957.18382
209.149	-8267.96699
209.371	-2692.50558
209.593	-2077.74686
209.814	-4211.86062
210.036	2090.29534
210.258	-711.66777
210.479	2157.68404
210.701	796.43809
210.922	4369.18582
211.144	-1499.088
211.366	5722.05357
211.587	-546.5512
211.809	-3540.23383
212.03	-2298.92934
212.252	-533.09424
212.473	3000.30481
212.695	-840.05401
212.916	-874.22892
213.138	673.03178
213.359	-1161.93876
213.581	-3212.53724
213.802	-1049.63799
214.024	10961.82958
214.245	-1097.35046
214.466	-179.955
214.688	-3746.67709
214.909	-771.76866
215.131	8570.92823
215.352	-1237.54767
215.573	-248853.89001
215.795	4304.15943
216.016	-3719.27593
216.237	-543.84896
216.459	-11386.85834
216.68	-1565.46615
216.901	-1667.95517
217.122	1796.96823
217.344	-8946.46899
217.565	-1603.63167
217.786	22553.87404
218.007	785.97724
218.228	-4411.78836
218.45	-5683.82482
218.671	-1419.11322
218.892	877.33715
219.113	1857.00169
219.334	281.32832
219.555	-5488.04743
219.776	34235.62514
219.997	-6487.42917
220.219	-8950.5204
220.44	-4588.48546
220.661	-1397.49076
220.882	12537.88123
221.103	-815.65232
221.324	2493.74401
221.545	-6416.43576
221.766	-1474.37153
221.987	-391.91805
222.208	1793.89695
222.429	6411.50403
222.65	-89.63308
222.87	-851.21175
223.091	37584.046
223.312	757.34403
223.533	-1936.29602
223.754	3516.21797
223.975	1679.3396
224.196	-736.03875
224.417	-29697.86823
224.637	-2300.23618
224.858	476.30917
225.079	3840.83612
225.3	1623.28868
225.521	3512.2085
225.741	-2380.23889
225.962	1485.67045
226.183	966.67424
226.404	1861.27287
226.624	2015.58753
226.845	1419.61306
227.066	2429.95163
227.286	654.84826
227.507	419.61325
227.728	381.34802
227.948	535.43078
228.169	125.58625
228.389	126.39056
228.61	52.16339
228.831	84.01725
229.051	10.18053
229.272	45.39398
229.492	60.99412
229.713	21.24089
229.933	49.63525
230.154	40.63161
230.374	68.39844
230.595	54.35668
230.815	34.91726
231.036	55.37793
231.256	-9.38663
231.477	107.48487
231.697	67.5722
231.917	61.25584
232.138	78.46272
232.358	184.84224
232.579	181.73355
232.799	29.33116
233.019	167.97281
233.24	237.31897
233.46	72.30496
233.68	107.78441
233.901	95.63775
234.121	42.88402
234.341	23.19826
234.561	-3.45435
234.782	33.73603
235.002	116.85278
235.222	2.86749
235.442	84.70017
235.662	49.21774
235.883	102.02282
236.103	88.9099
236.323	65.52636
236.543	49.61357
236.763	64.54632
236.983	61.94238
237.203	75.82406
237.423	103.61717
237.643	150.87279
237.864	140.62907
238.084	36.14389
238.304	50.42443
238.524	88.42387
238.744	65.98264
238.964	108.64089
239.184	108.58485
239.404	99.88563
239.624	52.9551
239.843	101.39642
240.063	49.51204
240.283	35.32944
240.503	38.82385
240.723	33.60051
240.943	17.10098
241.163	27.39237
241.383	20.61013
241.603	7.79451
241.822	12.0653
242.042	8.83501
242.262	9.77494
242.482	11.85237
242.702	13.84667
242.921	4.77117
243.141	10.29398
243.361	8.28761
243.581	13.33974
243.8	11.55806
244.02	6.72012
244.24	15.30664
244.459	13.81223
244.679	26.83351
244.899	16.61445
245.118	21.33342
245.338	16.7782
245.558	22.34285
245.777	12.11871
245.997	13.32273
246.216	13.91223
246.436	7.58354
246.655	5.24119
246.875	3.88137
247.094	7.95639
247.314	2.67146
247.533	4.43198
247.753	5.87514
247.972	4.16994
248.192	1.59839
248.411	2.82056
248.631	5.25967
248.85	6.49374
249.07	5.15226
249.289	8.9572
249.508	6.75724
249.728	11.02078
249.947	11.03599
250.166	12.11996
250.386	7.07838
250.605	9.33786
250.824	15.85671
251.044	11.36662
251.263	37.39969
251.482	18.97112
251.701	16.68718
251.921	0.56992
252.14	5.30188
252.359	6.53806
252.578	13.30329
252.798	4.84522
253.017	12.86966
253.236	6.67286
253.455	8.12278
253.674	16.29202
253.893	7.53446
254.112	10.75716
254.331	16.55177
254.551	14.76361
254.77	6.41478
254.989	22.12292
255.208	19.62788
255.427	21.83207
255.646	19.25428
255.865	33.95827
256.084	12.84431
256.303	13.55086
256.522	21.05935
256.741	5.18127
256.96	4.75534
257.179	12.31671
257.397	16.20416
257.616	7.90706
257.835	8.83196
258.054	21.30375
258.273	13.82299
258.492	15.54248
258.711	8.63605
258.93	4.3241
259.148	5.1596
259.367	5.75684
259.586	7.06236
259.805	3.40569
260.023	6.75128
260.242	4.91168
260.461	3.78123
260.68	1.83314
260.898	5.82296
261.117	1.84632
261.336	1.36542
261.554	5.32354
261.773	5.17591
261.992	1.13271
262.21	4.96392
262.429	6.2833
262.648	10.19134
262.866	11.81186
263.085	8.03595
263.303	7.67306
263.522	11.83156
263.74	12.61829
263.959	21.01936
264.178	9.66825
264.396	10.01294
264.615	7.40717
264.833	16.66519
265.051	14.44441
265.27	14.2236
265.488	15.55103
265.707	10.18391
265.925	15.11281
266.144	6.43563
266.362	8.74273
266.58	8.88901
266.799	6.07958
267.017	8.42787
267.235	7.24738
267.454	5.06553
267.672	3.20996
267.89	5.9151
268.109	6.44228
268.327	6.08359
268.545	1.47886
268.763	5.79261
268.982	2.71674
269.2	7.43821
269.418	4.52995
269.636	2.93034
269.854	6.50905
270.073	5.16011
270.291	2.63568
270.509	2.70695
270.727	6.08612
270.945	9.56217
271.163	10.18721
271.381	2.10754
271.599	3.71888
271.817	7.34114
272.036	2.32852
272.254	4.77798
272.472	3.33107
272.69	3.41955
272.908	3.42727
273.126	6.148
273.344	7.5324
273.562	2.426
273.779	3.9375
273.997	5.09123
274.215	6.14068
274.433	4.51625
274.651	6.17207
274.869	6.2862
275.087	3.6937
275.305	6.07675
275.523	3.61381
275.74	4.57536
275.958	7.81354
276.176	11.3154
276.394	3.78304
276.612	4.6918
276.829	4.67733
277.047	3.93912
277.265	4.02648
277.483	5.26146
277.7	6.3818
277.918	4.62192
278.136	8.70967
278.353	4.51794
278.571	2.26862
278.789	7.13383
279.006	1.71763
279.224	4.24056
279.442	6.84663
279.659	4.56358
279.877	3.5821
280.094	7.57925
280.312	1.38311
280.529	4.82902
280.747	1.51457
280.964	3.70928
281.182	8.51783
281.399	3.79928
281.617	5.54264
281.834	3.87891
282.052	3.20661
282.269	4.49199
282.487	3.17325
282.704	2.38046
282.921	3.02443
283.139	4.5332
283.356	6.00634
283.574	4.70543
283.791	2.60677
284.008	7.72467
284.226	4.08219
284.443	4.29849
284.66	5.3095
284.877	4.31151
285.095	2.94014
285.312	2.28172
285.529	1.39774
285.746	1.01253
285.964	2.70287
286.181	1.73934
286.398	2.65336
286.615	3.81311
286.832	3.70339
287.05	1.30179
287.267	2.57876
287.484	2.84755
287.701	3.82016
287.918	3.62303
288.135	3.76013
288.352	1.81297
288.569	2.12576
288.786	3.4099
289.003	2.69622
289.22	3.82477
289.437	2.52267
289.654	4.13264
289.871	4.33734
290.088	4.22024
290.305	3.0822
290.522	2.38898
290.739	2.86284
290.956	4.40658
291.173	5.18255
291.39	4.62759
291.607	3.47374
291.824	2.5545
292.04	1.72942
292.257	3.92974
292.474	4.51407
292.691	2.81334
292.908	1.59515
293.125	2.41178
293.341	1.69193
293.558	6.98439
293.775	2.79108
293.992	2.85703
294.208	1.32885
294.425	1.70812
294.642	2.39102
294.858	4.14383
295.075	1.14023
295.292	2.74983
295.508	3.4257
295.725	5.28995
295.942	2.45086
296.158	1.83688
296.375	2.91674
296.591	2.26172
296.808	2.61744
297.024	2.78643
297.241	2.85764
297.458	3.3211
297.674	0.35177
297.891	2.75093
298.107	2.19705
298.323	1.69355
298.54	4.07057
298.756	1.96448
298.973	1.08846
299.189	4.15093
299.406	2.15477
299.622	4.15341
299.838	4.3156
300.055	3.75618
300.271	1.31177
300.487	1.69121
300.704	2.00582
300.92	1.31548
301.136	5.87506
301.353	4.12936
301.569	2.90301
301.785	3.46503
302.001	4.19999
302.218	3.59924
302.434	3.6012
302.65	1.58429
302.866	2.71216
303.083	5.60663
303.299	5.73232
303.515	3.15661
303.731	3.59505
303.947	1.59527
304.163	2.11768
304.379	3.3282
304.595	3.62911
304.812	2.37831
305.028	2.06027
305.244	2.47036
305.46	3.9323
305.676	4.41797
305.892	4.92773
306.108	3.61145
306.324	2.76789
306.54	5.78591
306.756	3.89374
306.972	3.73714
307.187	3.13585
307.403	4.9235
307.619	2.49574
307.835	4.40978
308.051	5.13484
308.267	1.60163
308.483	4.83386
308.699	3.83361
308.914	3.24014
309.13	3.03426
309.346	1.80268
309.562	2.26971
309.778	1.82554
309.993	4.0442
310.209	3.70623
310.425	1.75482
310.641	3.23782
310.856	2.20733
311.072	2.16792
311.288	3.099
311.503	3.76184
311.719	1.34215
311.935	1.61959
312.15	4.21069
312.366	3.88481
312.581	4.10766
312.797	3.6877
313.013	4.40768
313.228	2.84315
313.444	3.27193
313.659	2.74781
313.875	3.79948
314.09	3.04288
314.306	4.80059
314.521	4.27724
314.737	4.2584
314.952	3.67536
315.168	3.59634
315.383	4.20437
315.599	2.83985
315.814	3.10451
316.029	4.5204
316.245	2.09557
316.46	1.5445
316.675	4.7843
316.891	5.60665
317.106	6.66462
317.321	4.1682
317.537	4.13931
317.752	4.53789
317.967	4.38793
318.183	2.56718
318.398	2.88824
318.613	4.65809
318.828	5.41053
319.043	4.43391
319.259	2.85262
319.474	4.00915
319.689	4.7957
319.904	1.22026
320.119	4.64318
320.334	3.75916
320.549	3.36704
320.765	5.08386
320.98	3.94067
321.195	4.17144
321.41	3.22161
321.625	4.31301
321.84	5.62121
322.055	5.71312
322.27	2.31651
322.485	2.21473
322.7	4.03522
322.915	4.60862
323.13	2.72371
323.345	5.71312
323.56	3.96659
323.775	4.47869
323.989	4.27985
324.204	3.57087
324.419	4.74101
324.634	2.14576
324.849	3.4509
325.064	6.69164
325.279	4.8699
325.493	4.08048
325.708	4.6237
325.923	2.63217
326.138	3.00662
326.352	5.53217
326.567	4.4004
326.782	3.06716
326.997	2.75098
327.211	4.0819
327.426	4.01213
327.641	3.37069
327.855	1.70758
328.07	4.58019
328.285	5.96408
328.499	3.0491
328.714	4.19956
328.928	4.27643
329.143	3.68902
329.358	5.24975
329.572	4.7366
329.787	5.51408
330.001	6.94115
330.216	1.48913
330.43	5.99812
330.645	5.3719
330.859	4.65744
331.074	2.33859
331.288	3.62338
331.503	5.83388
331.717	2.27304
331.931	3.53186
332.146	3.63795
332.36	6.04353
332.575	4.33982
332.789	3.65182
333.003	4.03492
333.218	4.49872
333.432	3.33328
333.646	4.35703
333.86	5.87381
334.075	5.93138
334.289	3.07555
334.503	2.52419
334.717	4.76253
334.932	3.87703
335.146	5.34788
335.36	2.822
335.574	4.5299
335.788	4.11948
336.003	4.97974
336.217	4.88801
336.431	4.29899
336.645	3.18866
336.859	2.49246
337.073	3.5477
337.287	4.18736
337.501	2.28147
337.715	4.32615
337.929	4.45386
338.143	2.44599
338.357	3.43086
338.571	2.89089
338.785	4.8466
338.999	2.92543
339.213	3.31732
339.427	2.20087
339.641	5.16548
339.855	3.17455
340.069	2.76425
340.283	4.80709
340.497	5.81992
340.711	4.34884
340.924	3.66843
341.138	2.74401
341.352	2.02626
341.566	3.95285
341.78	1.9703
341.993	2.9713
342.207	2.64381
342.421	4.12871
342.635	3.95265
342.848	3.17514
343.062	0.8221
343.276	3.10019
343.49	6.19027
343.703	2.85449
343.917	4.64509
344.131	4.82606
344.344	2.93828
344.558	3.07664
344.771	2.5653
344.985	5.32718
345.199	5.80959
345.412	4.07535
345.626	4.30653
345.839	1.6758
346.053	2.42175
346.266	2.57865
346.48	4.56688
346.693	4.01768
346.907	4.21519
347.12	2.80992
347.334	3.79391
347.547	4.11761
347.76	3.6474
347.974	5.02898
348.187	3.80652
348.401	3.43117
348.614	2.57287
348.827	3.54022
349.041	4.43193
349.254	1.80394
349.467	3.164
349.681	2.56574
349.894	2.59568
350.107	5.20967
350.32	5.94949
350.534	1.86778
350.747	3.38882
350.96	2.82398
351.173	2.855
351.386	3.4698
351.6	3.02438
351.813	3.35687
352.026	3.75385
352.239	2.4735
352.452	3.17321
352.665	4.85527
352.878	3.21102
353.092	6.29858
353.305	4.44658
353.518	4.17714
353.731	2.35129
353.944	5.12237
354.157	2.9525
354.37	3.0646
354.583	2.34835
354.796	2.37754
355.009	4.85953
355.222	3.94636
355.435	3.74384
355.647	5.08609
355.86	2.90317
356.073	3.94867
356.286	3.22058
356.499	4.96962
356.712	4.35807
356.925	4.34624
357.138	4.94748
357.35	2.76085
357.563	3.57722
357.776	4.18205
357.989	3.9001
358.201	4.58801
358.414	4.36737
358.627	5.46436
358.84	3.89765
359.052	2.7972
359.265	3.1726
359.478	5.11293
359.69	1.34674
359.903	4.86243
360.116	5.32331
360.328	2.48198
360.541	4.95127
360.753	3.61259
360.966	3.92155
361.179	4.01168
361.391	3.78376
361.604	3.54427
361.816	4.02794
362.029	3.86512
362.241	3.50761
362.454	4.1731
362.666	3.64246
362.879	4.96043
363.091	3.96637
363.304	3.78288
363.516	4.04411
363.728	3.07647
363.941	4.80175
364.153	4.40426
364.366	2.30381
364.578	3.12184
364.79	4.68648
365.003	4.55048
365.215	3.78386
365.427	5.10973
365.639	5.46533
365.852	4.67678
366.064	6.09906
366.276	4.12684
366.488	4.74725
366.701	4.25436
366.913	4.16138
367.125	4.04362
367.337	3.81721
367.549	3.94738
367.762	4.41165
367.974	4.34989
368.186	4.21056
368.398	5.50621
368.61	4.97395
368.822	5.12827
369.034	4.13169
369.246	5.46421
369.458	7.32747
369.67	3.66504
369.882	6.30152
370.094	2.47199
370.306	6.17741
370.518	4.31016
370.73	4.10994
370.942	4.3532
371.154	4.80073
371.366	4.53095
371.578	5.53387
371.79	4.58636
372.002	6.29421
372.214	7.28843
372.425	4.99833
372.637	6.64174
372.849	5.35419
373.061	3.16878
373.273	5.42696
373.484	5.49637
373.696	6.21745
373.908	3.12401
374.12	6.3239
374.331	6.11146
374.543	4.2766
374.755	4.2827
374.967	5.2891
375.178	6.61263
375.39	5.27251
375.602	5.61935
375.813	3.99865
376.025	4.6663
376.236	5.78203
376.448	5.78139
376.66	5.85977
376.871	5.89732
377.083	6.76452
377.294	7.77005
377.506	5.60724
377.717	7.31369
377.929	6.36787
378.14	5.84058
378.352	6.62929
378.563	6.94359
378.775	7.57861
378.986	5.20099
379.197	6.41796
379.409	5.73292
379.62	7.03554
379.832	6.43854
380.043	6.27211
380.254	6.88227
380.466	5.37189
380.677	9.23789
380.888	8.59469
381.1	9.26888
381.311	9.28139
381.522	7.07219
381.733	9.47292
381.945	6.79675
382.156	6.32713
382.367	6.52922
382.578	9.77733
382.789	9.99331
383.001	6.19431
383.212	8.86934
383.423	9.14375
383.634	8.30433
383.845	8.06263
384.056	7.02638
384.267	7.56829
384.478	7.65953
384.69	6.50026
384.901	8.27359
385.112	8.08104
385.323	9.57488
385.534	8.06313
385.745	8.46651
385.956	8.1682
386.167	7.01413
386.378	8.59814
386.588	7.75106
386.799	7.31511
387.01	7.02695
387.221	9.18909
387.432	8.55567
387.643	10.00304
387.854	8.00821
388.065	8.30865
388.275	8.2478
388.486	8.04056
388.697	8.69686
388.908	8.33825
389.119	9.66946
389.329	10.18538
389.54	8.95164
389.751	9.39526
389.962	10.20801
390.172	8.94329
390.383	9.30387
390.594	8.4291
390.804	8.59934
391.015	8.86464
391.226	9.7694
391.436	10.186
391.647	10.08188
391.858	10.19303
392.068	8.41221
392.279	9.08304
392.489	10.38472
392.7	10.55396
392.91	9.4347
393.121	9.48711
393.331	10.52982
393.542	11.39034
393.752	11.08135
393.963	10.8092
394.173	10.82879
394.384	11.01131
394.594	10.67523
394.804	9.48087
395.015	10.54566
395.225	10.95242
395.436	9.91353
395.646	11.09132
395.856	10.54248
396.067	9.24054
396.277	11.623
396.487	11.1803
396.697	11.22227
396.908	11.67638
397.118	11.69543
397.328	11.02598
397.538	12.02722
397.749	10.80914
397.959	12.09436
398.169	11.77164
398.379	10.28903
398.589	11.71107
398.8	12.15145
399.01	12.03897
399.22	11.38771
399.43	13.6872
399.64	11.62732
399.85	12.09622
400.06	12.15906
400.27	11.06843
400.48	12.0024
400.69	12.82144
400.9	11.59613
401.11	11.12307
401.32	12.79156
401.53	11.94578
401.74	13.5689
401.95	12.76196
402.16	12.2431
402.37	12.80068
402.58	12.01783
402.79	13.15367
403	13.45992
403.209	12.04216
403.419	13.72747
403.629	12.11311
403.839	14.12501
404.049	14.01256
404.258	12.80852
404.468	12.84009
404.678	14.02842
404.888	14.51338
405.097	13.55566
405.307	13.49231
405.517	13.87972
405.727	14.09673
405.936	13.22197
406.146	14.13505
406.356	15.08155
406.565	13.57442
406.775	13.40923
406.984	13.45191
407.194	15.70825
407.404	14.02924
407.613	14.21647
407.823	14.73246
408.032	15.34913
408.242	14.67319
408.451	13.77432
408.661	14.24091
408.87	15.77076
409.08	13.91254
409.289	14.76128
409.499	14.63968
409.708	14.37949
409.918	12.84197
410.127	14.81987
410.336	15.9844
410.546	15.54662
410.755	14.3899
410.964	14.45651
411.174	13.95564
411.383	15.58601
411.592	14.77351
411.802	14.25774
412.011	15.41078
412.22	15.05866
412.429	16.05056
412.639	16.28915
412.848	15.87752
413.057	16.83188
413.266	16.14374
413.475	15.622
413.685	15.90225
413.894	16.23878
414.103	16.32878
414.312	16.07272
414.521	15.2319
414.73	15.94372
414.939	17.42534
415.148	16.15431
415.357	16.22434
415.566	15.93519
415.776	15.7662
415.985	16.23791
416.194	16.91856
416.403	18.12787
416.611	15.38518
416.82	16.25216
417.029	16.91909
417.238	16.31122
417.447	16.43084
417.656	16.59095
417.865	16.38241
418.074	16.95744
418.283	16.86456
418.492	18.07302
418.7	17.87498
418.909	18.7903
419.118	17.51777
419.327	18.10673
419.536	17.75007
419.744	17.69083
419.953	19.2254
420.162	19.61849
420.371	19.00275
420.579	20.2073
420.788	21.11083
420.997	21.53095
421.205	22.03552
421.414	21.467
421.623	21.93618
421.831	21.09092
422.04	21.59898
422.249	20.52785
422.457	20.80019
422.666	19.64367
422.874	20.87607
423.083	20.89128
423.291	20.96951
423.5	21.28202
423.708	21.79172
423.917	22.65993
424.125	21.87786
424.334	21.85698
424.542	23.89003
424.751	23.02925
